TimeStamp,Delta_TP9,Delta_AF7,Delta_AF8,Delta_TP10,Theta_TP9,Theta_AF7,Theta_AF8,Theta_TP10,Alpha_TP9,Alpha_AF7,Alpha_AF8,Alpha_TP10,Beta_TP9,Beta_AF7,Beta_AF8,Beta_TP10,Gamma_TP9,Gamma_AF7,Gamma_AF8,Gamma_TP10,RAW_TP9,RAW_AF7,RAW_AF8,RAW_TP10,AUX_RIGHT,Accelerometer_X,Accelerometer_Y,Accelerometer_Z,Gyro_X,Gyro_Y,Gyro_Z,HeadBandOn,HSI_TP9,HSI_AF7,HSI_AF8,HSI_TP10,Battery,Elements
2021-04-07 12:39:27.799,,,,,,,,,,,,,,,,,,,,,,,,,,,,,,,,,,,,,,/muse/elements/blink
2021-04-07 12:39:27.821,,,,,,,,,,,,,,,,,,,,,,,,,,,,,,,,,,,,,,/muse/elements/blink
2021-04-07 12:39:27.848,,,,,,,,,,,,,,,,,,,,,,,,,,,,,,,,,,,,,,/muse/elements/blink
2021-04-07 12:39:28.065,,,,,,,,,,,,,,,,,,,,,,,,,,,,,,,,,,,,,,/muse/elements/blink
2021-04-07 12:39:28.264,,,,,,,,,,,,,,,,,,,,,,,,,,,,,,,,,,,,,,/muse/elements/blink
2021-04-07 12:39:28.629,0,0.5117438250463603,0.462124313401563,0,0,0.5229923887486483,0.3928866753036468,0,0,1.135757819930019,0.5803604741624947,0,0,1.200067564408175,0.466754340057475,0,0,1.379584521675504,0.06312983410144071,0,1047.216117216117,799.8168498168499,794.981684981685,1185.421245421245,780.8791208791209,0.320496,0.110840,0.936768,6.213226,2.295380,1.816864,1,2,1,1,4,100.000000
2021-04-07 12:39:28.799,,,,,,,,,,,,,,,,,,,,,,,,,,,,,,,,,,,,,,/muse/elements/blink
2021-04-07 12:39:29.159,,,,,,,,,,,,,,,,,,,,,,,,,,,,,,,,,,,,,,/muse/elements/blink
2021-04-07 12:39:29.586,,,,,,,,,,,,,,,,,,,,,,,,,,,,,,,,,,,,,,/muse/elements/blink
2021-04-07 12:39:29.628,0,0.5660892123286744,0.4313244093672667,0,0,0.5118492557851115,0.4303453107444586,0,0,0.942738972080807,0.4334820461047306,0,0,1.057223421685386,0.4595112906880494,0,0,1.010619742711244,0.1386925911310664,0,1028.681318681319,820.7692307692308,797.8021978021978,820.7692307692308,767.1794871794872,0.308838,0.119629,0.940796,6.676788,3.529053,2.856140,1,2,1,1,4,100.000000
2021-04-07 12:39:29.766,,,,,,,,,,,,,,,,,,,,,,,,,,,,,,,,,,,,,,/muse/elements/blink
2021-04-07 12:39:30.636,0,0.9212541308757908,0.4321856478171747,0,0,0.8774172900329137,0.2673463931410188,0,0,1.112483478503673,0.4716283623131901,0,0,1.177944862219778,0.4581181849907755,0,0,1.21984442079059,0.1870666399711313,0,1114.102564102564,832.4542124542124,809.4871794871796,1317.179487179487,830.0366300366301,0.304077,0.126648,0.941528,5.659943,2.355194,3.910370,1,2,1,1,4,100.000000
2021-04-07 12:39:30.981,,,,,,,,,,,,,,,,,,,,,,,,,,,,,,,,,,,,,,/muse/elements/blink
2021-04-07 12:39:31.226,,,,,,,,,,,,,,,,,,,,,,,,,,,,,,,,,,,,,,/muse/elements/blink
2021-04-07 12:39:31.539,,,,,,,,,,,,,,,,,,,,,,,,,,,,,,,,,,,,,,/muse/elements/blink
2021-04-07 12:39:31.628,0,0.9427485442637746,0.5840467961017777,0,0,0.6462519351294466,0.6360465977750849,0,0,1.055175192094377,0.3825477989148801,0,0,1.08868937119045,0.4232783879455707,0,0,1.276819366405316,0.1100280805966241,0,930.7692307692308,790.1465201465202,805.4578754578755,825.2014652014652,671.6849816849817,0.306458,0.118958,0.941101,6.048737,2.691650,2.302856,1,2,1,1,4,100.000000
2021-04-07 12:39:31.829,,,,,,,,,,,,,,,,,,,,,,,,,,,,,,,,,,,,,,/muse/elements/blink
2021-04-07 12:39:32.007,,,,,,,,,,,,,,,,,,,,,,,,,,,,,,,,,,,,,,/muse/elements/blink
2021-04-07 12:39:32.438,,,,,,,,,,,,,,,,,,,,,,,,,,,,,,,,,,,,,,/muse/elements/blink
2021-04-07 12:39:32.628,0.6154770026519123,0.7927300982329062,0.5039410075304706,0,0.2608053798011918,0.4240992277424491,0.5879614321330275,0,0.7928063179208057,0.9451827439581116,0.4588061361695396,0,1.266557005266951,1.076228469007593,0.338687471178718,0,1.002534475709069,1.136065698194673,0.1043085524474261,0,825.2014652014652,798.2051282051282,795.7875457875458,463.3699633699634,699.0842490842491,0.310608,0.116760,0.945801,6.093597,2.848663,2.796326,1,1,1,1,4,100.000000
2021-04-07 12:39:33.180,,,,,,,,,,,,,,,,,,,,,,,,,,,,,,,,,,,,,,/muse/elements/blink
2021-04-07 12:39:33.647,0.6154770026519123,0.5729949553668041,0.4855032389276029,0,0.2608053798011918,0.7029158663469507,0.5782380984508694,0,0.7928063179208057,1.145607768795237,0.568297925636741,0,1.266557005266951,0.9397962567798317,0.3567746314881727,0,1.002534475709069,0.9902102636458364,0.1151595737903565,0,1521.465201465202,956.959706959707,775.6410256410256,1450.549450549451,844.1391941391942,-0.229187,0.034485,0.858154,1.600037,46.573029,14.587250,1,1,1,1,4,100.000000
2021-04-07 12:39:33.674,,,,,,,,,,,,,,,,,,,,,,,,,,,,,,,,,,,,,,/muse/elements/blink
2021-04-07 12:39:34.037,,,,,,,,,,,,,,,,,,,,,,,,,,,,,,,,,,,,,,/muse/elements/blink
2021-04-07 12:39:36.120,,,,,,,,,,,,,,,,,,,,,,,,,,,,,,,,,,,,,,/muse/elements/blink
2021-04-07 12:39:36.137,,,,,,,,,,,,,,,,,,,,,,,,,,,,,,,,,,,,,,/muse/elements/blink
2021-04-07 12:39:36.153,,,,,,,,,,,,,,,,,,,,,,,,,,,,,,,,,,,,,,/muse/elements/blink
2021-04-07 12:39:36.189,,,,,,,,,,,,,,,,,,,,,,,,,,,,,,,,,,,,,,/muse/elements/blink
2021-04-07 12:39:36.208,,,,,,,,,,,,,,,,,,,,,,,,,,,,,,,,,,,,,,/muse/elements/blink
2021-04-07 12:39:36.248,0.6154770026519123,0.7415870625941372,0.9117739648703468,0,0.2608053798011918,0.7780263293854257,1.309199559207888,0,0.7928063179208057,1.079402700175464,1.393536536980934,0,1.266557005266951,0.9206588765974394,1.239443048790705,0,1.002534475709069,1.089907643278786,0.8508380085843953,0,949.7069597069598,678.9377289377289,805.8608058608058,1100.805860805861,846.959706959707,-0.144043,0.049011,0.919678,6.459961,-4.314117,3.080444,1,4,1,1,4,100.000000
2021-04-07 12:39:36.276,,,,,,,,,,,,,,,,,,,,,,,,,,,,,,,,,,,,,,/muse/elements/blink
2021-04-07 12:39:36.474,,,,,,,,,,,,,,,,,,,,,,,,,,,,,,,,,,,,,,/muse/elements/blink
2021-04-07 12:39:36.637,0.6154770026519123,0.7415870625941372,0.9545914375871374,0,0.2608053798011918,0.7780263293854257,1.321330412153804,0,0.7928063179208057,1.079402700175464,1.349460432567529,0,1.266557005266951,0.9206588765974394,1.310678426480265,0,1.002534475709069,1.089907643278786,0.6881870641519676,0,302.1978021978022,821.5750915750916,801.025641025641,1336.117216117216,881.2087912087912,-0.036743,-0.180115,0.999634,-7.402039,5.532837,13.450775,1,4,1,4,4,100.000000
2021-04-07 12:39:36.685,,,,,,,,,,,,,,,,,,,,,,,,,,,,,,,,,,,,,,/muse/elements/blink
2021-04-07 12:39:37.412,,,,,,,,,,,,,,,,,,,,,,,,,,,,,,,,,,,,,,/muse/elements/blink
2021-04-07 12:39:37.605,,,,,,,,,,,,,,,,,,,,,,,,,,,,,,,,,,,,,,/muse/elements/blink
2021-04-07 12:39:37.638,0.6154770026519123,0.7415870625941372,0.9545914375871374,0,0.2608053798011918,0.7780263293854257,1.321330412153804,0,0.7928063179208057,1.079402700175464,1.349460432567529,0,1.266557005266951,0.9206588765974394,1.310678426480265,0,1.002534475709069,1.089907643278786,0.6881870641519676,0,0,780.0732600732601,803.040293040293,0,823.1868131868132,-0.167480,-0.385010,0.903381,1.622467,-5.876770,-11.140442,1,4,1,1,4,100.000000
2021-04-07 12:39:38.008,,,,,,,,,,,,,,,,,,,,,,,,,,,,,,,,,,,,,,/muse/elements/blink
2021-04-07 12:39:38.599,,,,,,,,,,,,,,,,,,,,,,,,,,,,,,,,,,,,,,/muse/elements/blink
2021-04-07 12:39:38.639,0.6154770026519123,0.7415870625941372,1.261364423841907,0,0.2608053798011918,0.7780263293854257,0.64666252719235,0,0.7928063179208057,1.079402700175464,1.159478302527686,0,1.266557005266951,0.9206588765974394,1.273976376014323,0,1.002534475709069,1.089907643278786,1.344648561720802,0,0,786.1172161172161,772.8205128205128,0,636.2271062271062,-0.124634,-0.004944,0.958008,117.856903,-5.031891,-31.582031,1,4,1,1,4,100.000000
2021-04-07 12:39:39.111,,,,,,,,,,,,,,,,,,,,,,,,,,,,,,,,,,,,,,/muse/elements/blink
2021-04-07 12:39:39.663,,,,,,,,,,,,,,,,,,,,,,,,,,,,,,,,,,,,,,/muse/elements/blink
2021-04-07 12:39:39.683,0.6154770026519123,0.7415870625941372,1.261364423841907,0,0.2608053798011918,0.7780263293854257,0.64666252719235,0,0.7928063179208057,1.079402700175464,1.159478302527686,0,1.266557005266951,0.9206588765974394,1.273976376014323,0,1.002534475709069,1.089907643278786,1.344648561720802,0,593.919413919414,742.6007326007326,788.9377289377289,969.047619047619,1044.395604395604,-0.140137,0.142273,0.994019,-1.487885,-12.112427,8.695526,1,4,4,1,4,100.000000
2021-04-07 12:39:44.419,0.6154770026519123,0.7415870625941372,1.261364423841907,0,0.2608053798011918,0.7780263293854257,0.64666252719235,0,0.7928063179208057,1.079402700175464,1.159478302527686,0,1.266557005266951,0.9206588765974394,1.273976376014323,0,1.002534475709069,1.089907643278786,1.344648561720802,0,0,817.1428571428571,891.2820512820513,105.1648351648352,767.1794871794872,0.017029,0.065247,1.019470,-0.396271,-13.069458,11.147919,1,4,4,1,4,100.000000
2021-04-07 12:39:44.833,0.6154770026519123,0.7415870625941372,1.261364423841907,0,0.2608053798011918,0.7780263293854257,0.64666252719235,0,0.7928063179208057,1.079402700175464,1.159478302527686,0,1.266557005266951,0.9206588765974394,1.273976376014323,0,1.002534475709069,1.089907643278786,1.344648561720802,0,309.4505494505495,736.959706959707,805.0549450549451,620.1098901098901,769.1941391941392,0.061157,0.079407,1.004272,0.231781,-2.848663,1.801910,1,4,4,1,4,100.000000
2021-04-07 12:39:45.112,,,,,,,,,,,,,,,,,,,,,,,,,,,,,,,,,,,,,,/muse/elements/blink
2021-04-07 12:39:45.364,,,,,,,,,,,,,,,,,,,,,,,,,,,,,,,,,,,,,,/muse/elements/blink
2021-04-07 12:39:45.470,,,,,,,,,,,,,,,,,,,,,,,,,,,,,,,,,,,,,,/muse/elements/jaw_clench
2021-04-07 12:39:46.026,,,,,,,,,,,,,,,,,,,,,,,,,,,,,,,,,,,,,,/muse/elements/blink
2021-04-07 12:39:46.277,,,,,,,,,,,,,,,,,,,,,,,,,,,,,,,,,,,,,,/muse/elements/blink
2021-04-07 12:39:46.558,0.6154770026519123,0.7415870625941372,1.020401328626353,0,0.2608053798011918,0.7780263293854257,1.020079010421255,0,0.7928063179208057,1.079402700175464,1.031153502376516,0,1.266557005266951,0.9206588765974394,1.101575844685667,0,1.002534475709069,1.089907643278786,0.7310495471919165,0,1107.655677655678,820.3663003663004,823.1868131868132,1140.695970695971,835.6776556776557,-0.414673,0.047363,0.883118,6.796417,3.947754,3.005676,1,4,1,1,4,100.000000
2021-04-07 12:39:46.683,0.6154770026519123,0.7415870625941372,0.5684918678233296,0,0.2608053798011918,0.7780263293854257,0.5186833361871924,0,0.7928063179208057,1.079402700175464,0.8550949191656149,0,1.266557005266951,0.9206588765974394,1.136283229594918,0,1.002534475709069,1.089907643278786,1.006944401399234,0,453.6996336996337,804.6520146520147,814.7252747252747,619.3040293040293,750.2564102564103,-0.440674,0.048279,0.867859,6.579590,4.000092,-0.411224,1,4,1,1,4,100.000000
2021-04-07 12:39:47.679,0.6154770026519123,0.7415870625941372,0.249539266880859,0,0.2608053798011918,0.7780263293854257,0.4778991966157266,0,0.7928063179208057,1.079402700175464,0.7377602347619474,0,1.266557005266951,0.9206588765974394,0.9594131137292449,0,1.002534475709069,1.089907643278786,1.027837787162991,0,1052.051282051282,820.7692307692308,830.0366300366301,1085.091575091575,834.0659340659341,-0.450745,0.046631,0.860046,6.265564,1.525269,2.512207,1,4,1,1,4,100.000000
2021-04-07 12:39:48.720,0.6154770026519123,0.01073606392813639,-0.05776014358747442,0,0.2608053798011918,0.3250990804019899,0.2160284762597199,0,0.7928063179208057,0.7093500826451448,0.7185588151582483,0,1.266557005266951,1.09483892247147,0.9557495037701846,0,1.002534475709069,1.267001043682692,0.9823924732160932,0,1580.29304029304,771.2087912087912,805.4578754578755,92.27106227106228,686.5934065934066,-0.433899,0.037903,0.866516,11.880646,0.643005,-12.643280,1,4,1,1,4,100.000000
2021-04-07 12:39:49.633,0.6154770026519123,0.04010107986843661,0.6567938322878641,0,0.2608053798011918,0.5201006767017354,0.7398339980308906,0,0.7928063179208057,0.7924168427227565,0.7448579957926648,0,1.266557005266951,1.1690648571663,1.10883636073707,0,1.002534475709069,1.32331087867636,0.8389192538306764,0,1173.736263736264,826.007326007326,818.3516483516484,1199.92673992674,810.6959706959707,-0.423828,0.029114,0.886292,7.274933,2.272949,0.762634,1,4,1,1,4,100.000000
2021-04-07 12:39:50.681,0.6154770026519123,0.4014495695101751,0.486129510132305,0,0.2608053798011918,0.5406952077079658,0.4809289211184427,0,0.7928063179208057,0.8495958809773797,0.6584135904122277,0,1.266557005266951,1.202374868128094,1.071358609290403,0,1.002534475709069,1.421080316290887,0.7201525985456776,0,1427.582417582418,836.8864468864469,814.7252747252747,1309.92673992674,867.9120879120879,-0.441650,0.008484,0.864807,4.037476,10.003967,8.224487,1,4,1,1,4,100.000000
2021-04-07 12:39:51.643,0.6154770026519123,0.4014495695101751,0.3819791731917528,0,0.2608053798011918,0.5406952077079658,0.2933648100845452,0,0.7928063179208057,0.8495958809773797,0.624839044330525,0,1.266557005266951,1.202374868128094,0.9749103088663116,0,1.002534475709069,1.421080316290887,0.8626383473040971,0,1446.520146520146,796.5934065934066,796.1904761904763,1561.355311355311,1095.970695970696,-0.447510,0.005127,0.864441,5.831909,1.943970,3.573914,1,4,1,1,4,100.000000
2021-04-07 12:39:52.680,0.6154770026519123,0.6565399226238041,0.527929126846389,0,0.2608053798011918,0.613947048513741,0.3414669137717542,0,0.7928063179208057,0.9485240931370384,0.8037164483230501,0,1.266557005266951,1.106270218287557,1.05991151620699,0,1.002534475709069,1.639550474673574,1.007962394623688,0,1121.355311355311,820.3663003663004,794.1758241758242,1159.6336996337,774.4322344322345,-0.442322,0.006165,0.865906,6.041260,1.779480,2.945862,1,4,1,1,2,100.000000
2021-04-07 12:39:53.635,0.6154770026519123,0.6565399226238041,0.5748449420210787,0,0.2608053798011918,0.613947048513741,0.4916047223145334,0,0.7928063179208057,0.9485240931370384,0.8079131611319742,0,1.266557005266951,1.106270218287557,0.9101566878700473,0,1.002534475709069,1.639550474673574,0.9584370807143621,0,48.35164835164835,838.0952380952381,812.3076923076924,145.0549450549451,770.8058608058608,-0.443420,0.008301,0.868713,6.512299,2.235565,1.555176,1,4,1,1,4,100.000000
2021-04-07 12:39:54.654,0.6154770026519123,0.5246300767615685,0.697748319755825,0,0.2608053798011918,0.468442863582975,0.5321483785845565,0,0.7928063179208057,0.8332002050606672,0.597596134785726,0,1.266557005266951,1.197681039359942,0.8438380166605501,0,1.002534475709069,1.275398746457926,0.8998063378968861,0,1351.428571428572,714.7985347985348,793.3699633699634,1432.820512820513,876.7765567765568,-0.386169,0.038513,0.893677,6.489868,-2.086029,6.893616,1,4,1,1,4,100.000000
2021-04-07 12:39:55.717,0.6154770026519123,0.326090442610333,0.9831589576289873,0,0.2608053798011918,0.3535892270831645,0.9678857599152173,0,0.7928063179208057,0.7408538616942356,0.9349173923315589,0,1.266557005266951,1.129525020650719,0.9927298383741936,0,1.002534475709069,1.29113167178443,0.9783412519199515,0,1051.648351648352,831.6483516483516,811.5018315018315,1093.150183150183,813.5164835164835,-0.381042,0.026489,0.894592,6.123505,0.456085,3.454285,1,4,4,1,4,100.000000
2021-04-07 12:39:56.694,0.6154770026519123,0.326090442610333,0.2128119992275297,0,0.2608053798011918,0.3535892270831645,0.4400630259482872,0,0.7928063179208057,0.7408538616942356,0.6127591213835817,0,1.266557005266951,1.129525020650719,1.024033489776684,0,1.002534475709069,1.29113167178443,0.951364454838988,0,755.0915750915751,776.0439560439561,800.6227106227107,945.6776556776557,806.2637362637363,-0.364868,0.034607,0.899048,6.190796,2.811279,2.758942,1,4,1,1,4,100.000000
2021-04-07 12:39:57.645,0.6154770026519123,-0.1499006467675302,-0.1547243106103011,0,0.2608053798011918,0.2842536280167942,0.05434626441756832,0,0.7928063179208057,0.89224568799644,0.6264869157862308,0,1.266557005266951,1.298390915708073,1.004478281288184,0,1.002534475709069,1.196221915243048,0.7549031214052656,0,148.6813186813187,833.6630036630037,823.1868131868132,145.8608058608059,714.7985347985348,-0.365601,0.040100,0.906067,5.929108,2.250519,2.482300,1,4,1,1,4,100.000000
2021-04-07 12:39:58.634,0.6154770026519123,-0.4941635678977573,-0.1397457445867686,0,0.2608053798011918,0.238950639628694,-0.1134090110198255,0,0.7928063179208057,0.6733837507018706,0.7302205530785716,0,1.266557005266951,1.21511675342992,1.092702709275353,0,1.002534475709069,1.118421918899612,0.8469613356223828,0,1013.772893772894,800.6227106227107,808.6813186813187,1063.333333333333,871.1355311355312,-0.363708,0.042725,0.908020,6.631927,2.609406,2.676697,1,4,1,1,4,100.000000
2021-04-07 12:39:59.653,0.6154770026519123,-0.6543387480341061,0.7874476476366967,0,0.2608053798011918,-0.2032690375325381,0.8002244913374333,0,0.7928063179208057,0.2818029204212419,1.063686508071227,0,1.266557005266951,1.062504121686993,1.035660329899764,0,1.002534475709069,1.091940810810535,0.9033295484897016,0,1577.069597069597,753.0769230769231,786.9230769230769,64.06593406593407,803.4432234432235,-0.361450,0.039429,0.908020,6.706696,2.729034,2.564545,1,4,1,1,2,100.000000
2021-04-07 12:40:00.691,0.6154770026519123,-0.6543387480341061,0.07486308817607891,0,0.2608053798011918,-0.2032690375325381,0.04323073606576171,0,0.7928063179208057,0.2818029204212419,0.5414726162974057,0,1.266557005266951,1.062504121686993,1.048487057704287,0,1.002534475709069,1.091940810810535,0.8044972414926688,0,1269.230769230769,795.3846153846154,799.4139194139194,1355.860805860806,799.8168498168499,-0.363464,0.044922,0.904602,6.467438,2.325287,2.332764,1,4,1,1,4,100.000000
2021-04-07 12:40:01.654,0.6154770026519123,0.08813972983446439,0.4344739022298177,0,0.2608053798011918,0.3725881920738233,0.4908901114795308,0,0.7928063179208057,0.5237748189512726,0.8917618390500563,0,1.266557005266951,1.057560827448027,0.9773561593427712,0,1.002534475709069,1.235202147731584,0.8630751692652375,0,114.4322344322344,823.1868131868132,794.1758241758242,157.948717948718,885.6410256410256,-0.363525,0.048584,0.910278,6.370239,2.990723,2.153320,1,4,1,1,4,100.000000
2021-04-07 12:40:02.670,0.6154770026519123,0.2161753683434778,0.9579900065909367,0,0.2608053798011918,0.4751870429527784,1.011376542272763,0,0.7928063179208057,0.4966102313850611,0.8955123401975188,0,1.266557005266951,1.068950059307098,1.096973194557409,0,1.002534475709069,1.293470315694192,0.9424517719644165,0,53.58974358974359,862.6739926739926,817.5457875457876,30.21978021978022,1016.996336996337,-0.364441,0.038879,0.904846,5.779572,2.041168,2.198181,1,4,1,1,4,100.000000
2021-04-07 12:40:03.635,0.6154770026519123,0.2161753683434778,-0.1060309423431237,0,0.2608053798011918,0.4751870429527784,-0.1514051154299799,0,0.7928063179208057,0.4966102313850611,0.2223196085467548,0,1.266557005266951,1.068950059307098,0.9915741349125647,0,1.002534475709069,1.293470315694192,0.8628639439572644,0,1238.205128205128,770.8058608058608,792.967032967033,1300.659340659341,770.8058608058608,-0.360901,0.039978,0.905945,6.422577,1.958923,2.519684,1,4,4,1,4,100.000000
2021-04-07 12:40:04.635,0.6154770026519123,0.2161753683434778,-0.0700465896135251,0,0.2608053798011918,0.4751870429527784,1.612679186093973e-05,0,0.7928063179208057,0.4966102313850611,0.6713746162393339,0,1.266557005266951,1.068950059307098,0.9850063720921391,0,1.002534475709069,1.293470315694192,0.885838768031131,0,1000.07326007326,763.956043956044,802.2344322344322,1063.333333333333,849.7802197802198,-0.363403,0.047363,0.910583,6.273041,2.557068,2.332764,1,4,4,1,4,100.000000
2021-04-07 12:40:05.633,0.6154770026519123,0.2161753683434778,0.6770806024839383,0,0.2608053798011918,0.4751870429527784,0.6500997980536376,0,0.7928063179208057,0.4966102313850611,1.11363120231397,0,1.266557005266951,1.068950059307098,1.049494986770927,0,1.002534475709069,1.293470315694192,0.819255892011877,0,1612.527472527473,762.3443223443223,812.7106227106227,94.28571428571429,729.3040293040293,-0.362610,0.047485,0.912415,6.093597,2.504730,2.616882,1,4,1,1,4,100.000000
2021-04-07 12:40:06.672,0.6154770026519123,0.2161753683434778,-0.2292904068901556,0,0.2608053798011918,0.4751870429527784,-0.2794489847680598,0,0.7928063179208057,0.4966102313850611,0.3728411572062403,0,1.266557005266951,1.068950059307098,1.089869727849494,0,1.002534475709069,1.293470315694192,0.8894285414819947,0,1279.304029304029,811.9047619047619,768.3882783882784,1346.996336996337,944.0659340659341,-0.370972,0.041260,0.901794,6.430054,2.646790,2.086029,1,4,4,1,4,100.000000
2021-04-07 12:40:07.636,0.6154770026519123,0.2161753683434778,0.7939310403348276,0,0.2608053798011918,0.4751870429527784,0.5646808617041119,0,0.7928063179208057,0.4966102313850611,0.9866914900741187,0,1.266557005266951,1.068950059307098,0.956509119382678,0,1.002534475709069,1.293470315694192,0.9538900792393981,0,1048.021978021978,809.4871794871796,809.4871794871796,1083.076923076923,861.8681318681319,-0.360596,0.052734,0.908752,6.213226,2.123413,2.041168,1,4,4,1,4,100.000000
2021-04-07 12:40:08.661,0.6154770026519123,0.2161753683434778,1.290280249442844,0,0.2608053798011918,0.4751870429527784,1.143221360281457,0,0.7928063179208057,0.4966102313850611,1.021556433053106,0,1.266557005266951,1.068950059307098,1.066640682610789,0,1.002534475709069,1.293470315694192,0.8564966560281118,0,1.208791208791209,846.959706959707,814.3223443223443,1640.32967032967,871.1355311355312,-0.447144,-0.022095,0.866943,4.643097,2.856140,3.798218,1,4,1,1,4,100.000000
2021-04-07 12:40:09.653,0.6154770026519123,0.3084450632159831,1.062942653324764,0,0.2608053798011918,0.1326934580286527,0.9895940309846938,0,0.7928063179208057,0.751131561457889,0.876201339921962,0,1.266557005266951,1.267983975611855,1.11513294718088,0,1.002534475709069,1.353171214461863,1.107454418424253,0,1371.978021978022,796.996336996337,809.8901098901099,1467.875457875458,862.2710622710623,-0.437683,-0.000732,0.874023,6.325378,2.228088,2.609406,1,4,1,1,4,100.000000
2021-04-07 12:40:10.697,0.6154770026519123,0.3721941589673553,0.2318082274197802,0,0.2608053798011918,0.2016271408235016,0.206686479384779,0,0.7928063179208057,0.8409240262668437,0.3559730244896472,0,1.266557005266951,1.291928045933703,1.12385229757484,0,1.002534475709069,1.293947533324711,1.126618586900655,0,1051.648351648352,755.8974358974359,802.2344322344322,1083.076923076923,1172.124542124542,-0.427368,-0.009583,0.878174,5.428162,0.904694,5.001984,1,4,1,1,4,100.000000
2021-04-07 12:40:11.665,0.6154770026519123,0.3029571552366652,0.1052437045040766,0,0.2608053798011918,0.506885529902801,0.1142527255339523,0,0.7928063179208057,0.7755924047178999,0.503964101423666,0,1.266557005266951,1.129224406120407,1.219494006982218,0,1.002534475709069,1.311883048237442,0.7642787538243879,0,1537.985347985348,857.8388278388279,812.3076923076924,1495.677655677656,770.8058608058608,-0.389099,0.001160,0.900391,6.594543,1.099091,2.512207,1,4,1,1,4,100.000000
2021-04-07 12:40:12.644,0.6154770026519123,0.9255856499066953,0.5809599889419256,0,0.2608053798011918,0.8931899207305806,0.3849590299406687,0,0.7928063179208057,0.8964715401220006,0.6794794992675433,0,1.266557005266951,1.014366097907339,1.043596162400513,0,1.002534475709069,1.256488831736975,0.6140394004685321,0,1468.278388278388,819.5604395604396,803.040293040293,1593.186813186813,789.3406593406594,-0.381836,0.009705,0.898621,6.175842,1.981354,2.646790,1,4,1,1,4,100.000000
2021-04-07 12:40:13.646,0.6154770026519123,0.9016498674722065,0.4622419956779413,0,0.2608053798011918,0.8466775850479966,0.4090015835243658,0,0.7928063179208057,1.007456094079807,0.5704483622105133,0,1.266557005266951,1.157700657834431,0.9635105880050633,0,1.002534475709069,1.125777991374856,0.5880690759929759,0,159.1575091575092,840.9157509157509,816.7399267399268,156.3369963369964,973.8827838827839,-0.363953,0.005798,0.906860,6.003876,1.143951,2.287903,1,4,1,1,4,85.000000
2021-04-07 12:40:14.634,0.6154770026519123,0.3969609979565356,0.5427867739176806,0,0.2608053798011918,0.4324084829968353,0.6660922602342377,0,0.7928063179208057,0.836651473411511,0.3671069700375885,0,1.266557005266951,1.14969333787752,0.8753164088917115,0,1.002534475709069,1.345660085824895,0.5086524506830399,0,1549.67032967033,1010.14652014652,835.6776556776557,1347.399267399268,732.9304029304029,-0.026917,0.088867,0.903381,-1.921539,92.742310,-6.818848,1,4,1,1,4,85.000000
2021-04-07 12:40:15.653,0.6154770026519123,0.3969609979565356,0.9735476865831425,0,0.2608053798011918,0.4324084829968353,1.022955598663068,0,0.7928063179208057,0.836651473411511,0.2228986143562902,0,1.266557005266951,1.14969333787752,0.6132174289337849,0,1.002534475709069,1.345660085824895,0.444453317644062,0,105.1648351648352,867.1062271062272,827.6190476190476,85.42124542124543,923.919413919414,-0.360046,0.040588,0.908508,8.209534,3.267365,3.020630,1,4,1,1,4,85.000000
2021-04-07 12:40:16.634,0.6154770026519123,0.3969609979565356,0.5349935160754642,0,0.2608053798011918,0.4324084829968353,0.6400868435283409,0,0.7928063179208057,0.836651473411511,0.9396923657835999,0,1.266557005266951,1.14969333787752,1.353613029076322,0,1.002534475709069,1.345660085824895,1.280432605440267,0,1175.750915750916,789.3406593406594,798.2051282051282,1237.399267399268,760.7326007326008,-0.318909,0.042786,0.919983,6.033783,-2.444916,1.884155,1,4,1,1,4,85.000000
2021-04-07 12:40:17.655,0.6154770026519123,0.1440069203968334,0.4417542001865504,0,0.2608053798011918,0.141159204954028,0.5045802507790643,0,0.7928063179208057,0.8242808899899493,0.9738108111163249,0,1.266557005266951,1.374755332057413,1.25809225113287,0,1.002534475709069,1.374307408652257,1.103783561894444,0,1271.245421245421,808.6813186813187,821.5750915750916,1174.139194139194,820.3663003663004,-0.248596,0.042786,0.945374,8.030090,-4.059906,0.971985,1,4,1,1,4,85.000000
2021-04-07 12:40:18.644,0.6154770026519123,0.1737069092423982,0.6318921070800105,0,0.2608053798011918,0.3144934529911531,0.2962775239735727,0,0.7928063179208057,1.085761772369894,1.016501134763285,0,1.266557005266951,1.348656941676827,1.106893192325835,0,1.002534475709069,1.422848874471295,0.7715859500303377,0,1551.282051282051,867.5091575091575,778.4615384615385,1522.673992673993,692.2344322344322,-0.121094,0.091187,0.946411,4.456177,42.991638,0.485992,1,4,1,1,4,85.000000
2021-04-07 12:40:19.643,0.6154770026519123,0.2147643377107746,1.248066770442433,0,0.2608053798011918,0.4887369329940166,0.948679891173453,0,0.7928063179208057,1.026313353207594,1.229675247340841,0,1.266557005266951,1.306310111701598,1.196374523486681,0,1.002534475709069,1.486792249678808,1.173116168803089,0,1281.721611721612,826.8131868131868,780.8791208791209,1414.285714285714,812.7106227106227,-0.226807,0.058167,0.955017,6.796417,0.934601,1.899109,1,4,1,1,4,85.000000
2021-04-07 12:40:20.653,0.6154770026519123,0.2147643377107746,0.5490182591761443,0,0.2608053798011918,0.4887369329940166,0.740804480738728,0,0.7928063179208057,1.026313353207594,1.10743676130926,0,1.266557005266951,1.306310111701598,1.343624638685436,0,1.002534475709069,1.486792249678808,1.205826862530426,0,152.3076923076923,857.032967032967,793.7728937728938,163.1868131868132,748.6446886446887,-0.210571,0.067749,0.957275,6.183319,1.054230,2.601929,1,4,1,1,4,85.000000
2021-04-07 12:40:21.635,0.6154770026519123,0.2147643377107746,0.708239777013948,0,0.2608053798011918,0.4887369329940166,0.7442617007252668,0,0.7928063179208057,1.026313353207594,0.7324042940019813,0,1.266557005266951,1.306310111701598,1.325500964290771,0,1.002534475709069,1.486792249678808,1.109969821885022,0,33.84615384615385,808.2783882783883,804.2490842490843,133.3699633699634,821.5750915750916,-0.203125,0.067871,0.957764,6.130981,2.130890,2.100983,1,4,4,1,4,85.000000
2021-04-07 12:40:22.697,0.6154770026519123,0.2147643377107746,-0.002238754646655759,0,0.2608053798011918,0.4887369329940166,0.2389104611276958,0,0.7928063179208057,1.026313353207594,0.4678218397379419,0,1.266557005266951,1.306310111701598,1.289293620530391,0,1.002534475709069,1.486792249678808,1.083091238707654,0,711.5750915750916,824.3956043956044,788.9377289377289,618.0952380952381,1051.648351648352,-0.190613,0.075562,0.959961,7.020721,1.532745,2.624359,1,4,1,1,4,85.000000
2021-04-07 12:40:23.644,0.6154770026519123,0.03387234517167885,0.00407686625563167,0,0.2608053798011918,0.3336873261818344,0.2786670380452478,0,0.7928063179208057,0.8067577627161289,0.4296291049337679,0,1.266557005266951,1.300465802763552,1.061116545674231,0,1.002534475709069,1.481604340296773,0.8065420832383682,0,153.9194139194139,729.3040293040293,768.7912087912088,149.0842490842491,747.8388278388279,-0.068481,0.091309,0.987000,7.970276,-0.014954,0.717773,1,4,1,1,4,100.000000
2021-04-07 12:40:24.635,0.6154770026519123,0.01692970154452965,1.357909821716317,0,0.2608053798011918,0.4021957548332972,1.017646583115633,0,0.7928063179208057,0.6180309197246203,0.961562999814451,0,1.266557005266951,1.242838640618337,1.103831537804029,0,1.002534475709069,1.443439683199913,0.8024484947438963,0,78.97435897435898,823.1868131868132,807.8754578754579,158.3516483516484,730.1098901098901,-0.191833,0.072021,0.966064,6.190796,2.542114,2.265472,1,4,1,1,4,100.000000
2021-04-07 12:40:25.640,0.6154770026519123,0.01692970154452965,1.172478184552525,0,0.2608053798011918,0.4021957548332972,0.9112381693601944,0,0.7928063179208057,0.6180309197246203,0.9369586497931975,0,1.266557005266951,1.242838640618337,1.168884442892565,0,1.002534475709069,1.443439683199913,1.010599488960308,0,51.97802197802198,795.7875457875458,786.1172161172161,41.0989010989011,705.5311355311355,0.054443,0.122681,0.986877,8.239441,-1.173859,2.519684,1,4,1,1,4,100.000000
2021-04-07 12:40:26.630,0.6154770026519123,0.01692970154452965,1.237061262949973,0,0.2608053798011918,0.4021957548332972,0.735489312404177,0,0.7928063179208057,0.6180309197246203,1.023980860244563,0,1.266557005266951,1.242838640618337,0.98882353513573,0,1.002534475709069,1.443439683199913,0.79777515201372,0,151.5018315018315,701.5018315018315,813.1135531135532,152.3076923076923,726.0805860805862,-0.232788,0.073486,0.931885,2.856140,12.097473,0.082245,1,4,1,1,4,100.000000
2021-04-07 12:40:27.690,0.6154770026519123,0.01692970154452965,0.9978457694685121,0,0.2608053798011918,0.4021957548332972,0.6138044638296841,0,0.7928063179208057,0.6180309197246203,0.7373687780861857,0,1.266557005266951,1.242838640618337,1.284188718452611,0,1.002534475709069,1.443439683199913,1.106267660963704,0,85.01831501831502,839.3040293040293,805.0549450549451,164.3956043956044,693.4432234432235,-0.309875,0.057312,0.935974,3.977661,12.673187,0.800018,1,4,1,1,4,100.000000
2021-04-07 12:40:28.643,0.6154770026519123,0.01692970154452965,0.1002126031256171,0,0.2608053798011918,0.4021957548332972,0.100446323536883,0,0.7928063179208057,0.6180309197246203,0.9177298482463668,0,1.266557005266951,1.242838640618337,1.188782094568004,0,1.002534475709069,1.443439683199913,1.116157172946465,0,1521.465201465202,815.5311355311355,804.2490842490843,1638.315018315018,670.4761904761905,-0.394409,0.044800,0.890015,5.129089,3.529053,2.497253,1,4,1,1,4,100.000000
2021-04-07 12:40:29.663,0.6154770026519123,-0.3282328390231418,0.1434979338780777,0,0.2608053798011918,0.09788801385438894,0.2320202267713957,0,0.7928063179208057,1.058492701125219,0.9787880342232976,0,1.266557005266951,1.179438010006843,1.258094181856038,0,1.002534475709069,1.226833658639832,1.296184911766926,0,1163.663003663004,794.1758241758242,806.6666666666667,1214.029304029304,715.2014652014652,-0.410645,0.030029,0.880554,5.502930,3.648682,4.665527,1,4,1,1,4,100.000000
2021-04-07 12:40:30.653,0.6154770026519123,0.8816814761951016,0.5965494543680916,0,0.2608053798011918,0.7712004820385799,0.536515855666617,0,0.7928063179208057,1.103882747371518,0.4469438467799682,0,1.266557005266951,1.177212373544074,1.327451792447279,0,1.002534475709069,1.314990390493594,1.379495565329883,0,1386.080586080586,829.6336996336996,796.5934065934066,1274.065934065934,813.919413919414,-0.408752,0.025879,0.885681,5.323486,2.392578,2.856140,1,4,1,1,4,100.000000
2021-04-07 12:40:31.643,0.6154770026519123,0.5242600560192688,0.3316421236122619,0,0.2608053798011918,0.5864518875957218,0.4194601767888382,0,0.7928063179208057,1.015099511630395,0.5299694200420938,0,1.266557005266951,1.312065623693387,1.041427523654753,0,1.002534475709069,1.339807622223279,1.09802535224638,0,55.2014652014652,819.1575091575091,786.5201465201466,48.35164835164835,551.2087912087912,-0.405823,0.023071,0.889526,6.332855,2.160797,2.459869,1,4,1,1,4,100.000000
2021-04-07 12:40:32.636,0.6154770026519123,-0.1007476315755469,-0.1019907660829598,0,0.2608053798011918,0.3755425391307569,0.1128299299587074,0,0.7928063179208057,0.8764957917390364,0.4607128554403058,0,1.266557005266951,1.291013499485499,1.051041467111006,0,1.002534475709069,1.299107585771407,1.01274329752751,0,150.6959706959707,809.0842490842491,792.967032967033,161.1721611721612,962.6007326007326,-0.404602,0.032898,0.892578,6.220703,2.071075,2.594452,1,4,1,1,4,100.000000
2021-04-07 12:40:33.662,0.6154770026519123,0.5868966142853503,0.2583207651750176,0,0.2608053798011918,0.5131495287868054,0.6211605312281711,0,0.7928063179208057,0.6773233729558239,0.5120456818253515,0,1.266557005266951,1.094718312933089,1.299980526376401,0,1.002534475709069,1.09981716243103,1.182259064922112,0,1452.967032967033,832.4542124542124,798.2051282051282,1367.545787545788,709.9633699633699,-0.400757,0.030640,0.889221,6.826324,2.564545,2.355194,1,4,1,1,4,100.000000
2021-04-07 12:40:34.633,0.6154770026519123,0.2111630055575694,0.3874602310637127,0,0.2608053798011918,0.1962688757930358,0.7420622485031155,0,0.7928063179208057,0.7743039094675982,0.8256540020726383,0,1.266557005266951,1.311682744341423,1.194624624708357,0,1.002534475709069,1.327985628929034,1.208952862712383,0,1371.575091575092,822.7838827838829,802.2344322344322,1448.131868131868,859.4505494505495,-0.401001,0.023621,0.888672,6.639404,2.990723,1.682281,1,4,1,1,4,100.000000
2021-04-07 12:40:35.640,0.6154770026519123,0.2171842752453343,0.1555861661534796,0,0.2608053798011918,0.1952635953595929,0.3944104211983382,0,0.7928063179208057,0.568575628510144,0.7345363711711992,0,1.266557005266951,1.197988988642583,1.162396075500666,0,1.002534475709069,1.378709600883205,1.233421940269876,0,123.6996336996337,692.6373626373627,798.6080586080586,161.1721611721612,856.2271062271062,-0.388550,0.024719,0.891296,6.063690,2.295380,2.923431,1,4,1,1,4,100.000000
2021-04-07 12:40:36.653,0.6154770026519123,0.23893958590703,0.08022825078557846,0,0.2608053798011918,0.1883259792585402,0.5026948150750771,0,0.7928063179208057,0.4993842011664015,0.6352479865808779,0,1.266557005266951,1.103582903312053,1.171163116757099,0,1.002534475709069,1.432157843724961,0.9842843294626408,0,1531.538461538462,852.6007326007326,790.5494505494506,25.78754578754579,826.007326007326,-0.371399,0.020508,0.910828,6.916046,1.742096,2.272949,1,4,1,1,4,100.000000
2021-04-07 12:40:37.694,0.6154770026519123,0.23893958590703,0.5814460317940506,0,0.2608053798011918,0.1883259792585402,0.4922883860683998,0,0.7928063179208057,0.4993842011664015,0.7057223100137719,0,1.266557005266951,1.103582903312053,1.215566653187816,0,1.002534475709069,1.432157843724961,0.95672174162354,0,1243.443223443224,815.934065934066,807.8754578754579,1309.52380952381,691.8315018315019,-0.365784,0.014893,0.902222,6.258087,2.272949,2.601929,1,4,1,1,4,100.000000
2021-04-07 12:40:38.678,0.6154770026519123,0.7725406738134378,0.6119957279926341,0,0.2608053798011918,0.7437114606460079,0.488755636766979,0,0.7928063179208057,1.191741753114442,0.6587025949264156,0,1.266557005266951,1.286612394479525,1.188314413996598,0,1.002534475709069,1.487995553624342,0.9393995867261538,0,78.97435897435898,828.021978021978,806.6666666666667,151.0989010989011,809.4871794871796,-0.345947,0.035034,0.913757,5.510406,1.143951,7.252502,1,4,1,1,4,100.000000
2021-04-07 12:40:39.694,0.6154770026519123,0.6466233589892438,0.3812959306865857,0,0.2608053798011918,0.6142179584180935,0.3973728021036508,0,0.7928063179208057,1.185722592438016,0.7500843769730967,0,1.266557005266951,1.240300613640188,1.085809942288211,0,1.002534475709069,1.226678836246451,0.8767936409453463,0,709.5604395604396,805.4578754578755,802.2344322344322,623.3333333333334,947.6923076923077,-0.322449,0.034424,0.921204,5.652466,0.942078,-0.246735,1,4,1,1,4,100.000000
2021-04-07 12:40:40.643,0.6154770026519123,0.4717078748424649,0.2901700304167039,0,0.2608053798011918,0.5152734851205291,0.3883693696819355,0,0.7928063179208057,0.6692567667220848,0.7862042691910307,0,1.266557005266951,1.271494371368048,1.151738400524649,0,1.002534475709069,1.048710703494389,0.7941408746347404,0,136.1904761904762,805.8608058608058,798.6080586080586,159.5604395604396,733.3333333333334,-0.333801,0.032593,0.914001,6.063690,2.310333,1.816864,1,4,1,1,4,100.000000
2021-04-07 12:40:41.663,0.6154770026519123,0.1340699919234471,0.5638906309658325,0,0.2608053798011918,0.05246140685248058,0.6303391906804978,0,0.7928063179208057,0.8238802126961242,0.8252348036647275,0,1.266557005266951,1.360801865327262,1.169696296419306,0,1.002534475709069,1.296946952265129,0.8497752190407623,0,1575.457875457876,864.2857142857143,820.7692307692308,1534.358974358974,832.0512820512821,-0.337952,0.020630,0.920410,6.011353,2.153320,2.175751,1,4,1,1,4,100.000000
2021-04-07 12:40:42.684,0.6154770026519123,0.2552194446057684,0.6634315033059688,0,0.2608053798011918,0.1349924777395489,0.7171973380399416,0,0.7928063179208057,0.8229903741492606,0.8252348036647275,0,1.266557005266951,1.376520368850779,1.014757986315712,0,1.002534475709069,1.431099716739231,0.8778117686211031,0,1302.673992673993,853.8095238095239,842.1245421245421,1349.81684981685,855.4212454212454,-0.341003,0.024353,0.918579,6.033783,2.564545,2.818756,1,4,1,1,4,100.000000
2021-04-07 12:40:43.649,0.6154770026519123,0.2552194446057684,0.4271308985078254,0,0.2608053798011918,0.1349924777395489,0.2592602538561572,0,0.7928063179208057,0.8229903741492606,0.7662102091105134,0,1.266557005266951,1.376520368850779,0.966603974357452,0,1.002534475709069,1.431099716739231,0.9211848318910707,0,95.8974358974359,803.8461538461539,786.5201465201466,158.7545787545788,999.6703296703297,-0.340576,0.026917,0.915527,6.400146,2.130890,2.743988,1,4,1,1,4,100.000000
2021-04-07 12:40:44.641,0.6154770026519123,0.2552194446057684,0.9621287564224251,0,0.2608053798011918,0.1349924777395489,0.9323968672174318,0,0.7928063179208057,0.8229903741492606,1.077487121944217,0,1.266557005266951,1.376520368850779,1.110044132245516,0,1.002534475709069,1.431099716739231,0.9258578984349302,0,1472.710622710623,794.5787545787546,813.5164835164835,1586.739926739927,857.4358974358975,-0.339783,0.026672,0.912170,6.130981,1.929016,2.183228,1,4,1,1,4,100.000000
2021-04-07 12:40:45.696,0.6154770026519123,-0.4246985924910865,0.8344532619002111,0,0.2608053798011918,-0.1960207703229913,0.8167124956453675,0,0.7928063179208057,0.8894825144248998,1.077487121944217,0,1.266557005266951,1.464843474661274,1.017425687039963,0,1.002534475709069,1.488529080601664,0.949557193766967,0,1066.959706959707,786.9230769230769,800.2197802197802,882.4175824175825,888.8644688644689,-0.331177,0.021973,0.922302,6.071167,2.340240,2.871094,1,4,1,1,4,100.000000
2021-04-07 12:40:46.633,0.6154770026519123,-0.4246985924910865,0.1848669444275609,0,0.2608053798011918,-0.1960207703229913,0.007572927370600078,0,0.7928063179208057,0.8894825144248998,0.5203458132152248,0,1.266557005266951,1.464843474661274,1.00864434223723,0,1.002534475709069,1.488529080601664,0.8503742502534187,0,812.7106227106227,828.4249084249085,811.0989010989011,946.4835164835165,763.1501831501831,-0.329346,0.022888,0.921631,5.704803,1.929016,2.093506,1,4,1,1,4,100.000000
2021-04-07 12:40:47.655,0.6154770026519123,0.6387492301612709,0.9521880135329092,0,0.2608053798011918,0.7403148394517928,0.709207628192901,0,0.7928063179208057,0.7057813770015532,0.7232633908579014,0,1.266557005266951,1.267335164984872,1.072394494242529,0,1.002534475709069,1.427199493229439,0.8276192845523886,0,1279.70695970696,749.4505494505495,789.3406593406594,1338.937728937729,718.4249084249085,-0.325867,0.026855,0.920959,6.377716,1.712189,2.557068,1,4,1,1,4,100.000000
2021-04-07 12:40:48.643,0.6154770026519123,0.04951972198711932,0.3513556710309115,0,0.2608053798011918,0.4396121626222168,0.3072246011698318,0,0.7928063179208057,0.7115828937111802,0.6334392766225897,0,1.266557005266951,1.202147633442525,0.9880823974325292,0,1.002534475709069,1.387956431733341,0.7699369429523647,0,980.7326007326008,786.9230769230769,792.5641025641025,1052.051282051282,1040.3663003663,-0.325623,0.027405,0.927002,5.659943,1.906586,2.706604,1,4,1,1,4,100.000000
2021-04-07 12:40:49.665,0.6154770026519123,-0.3121808776881416,-0.1220976167714549,0,0.2608053798011918,0.2112834251267763,0.2609700261980513,0,0.7928063179208057,0.7020753310805347,0.5663165729543789,0,1.266557005266951,1.179645518310014,1.080856691385378,0,1.002534475709069,1.39025589352953,0.8349478431591701,0,605.6043956043957,803.8461538461539,811.5018315018315,795.3846153846154,725.2747252747253,-0.316345,0.023376,0.919983,6.116028,1.951447,2.572021,1,4,1,1,4,100.000000
2021-04-07 12:40:50.633,0.6154770026519123,-0.3121808776881416,-0.3181627625485018,0,0.2608053798011918,0.2112834251267763,0.3808226558236861,0,0.7928063179208057,0.7020753310805347,0.6712040427372925,0,1.266557005266951,1.179645518310014,1.052373582490679,0,1.002534475709069,1.39025589352953,0.7996595225199711,0,1156.410256410256,801.8315018315019,790.1465201465202,1198.315018315018,863.8827838827839,-0.321960,0.026367,0.925598,6.347809,2.691650,2.459869,1,4,1,1,4,100.000000
2021-04-07 12:40:51.664,0.6154770026519123,1.147956277934315,0.7011098666953296,0,0.2608053798011918,0.9332856229135368,0.8790883542044932,0,0.7928063179208057,0.8977501478450949,1.013881195796655,0,1.266557005266951,1.234564183133614,1.031398628770417,0,1.002534475709069,1.407057972203631,0.6296889705125193,0,5.641025641025641,801.4285714285714,788.5347985347986,105.1648351648352,1271.245421245421,-0.323547,0.020508,0.920959,7.065582,2.011261,2.138367,1,4,1,1,4,100.000000
2021-04-07 12:40:52.642,0.6154770026519123,0.8542948208712096,0.750716158175927,0,0.2608053798011918,0.6871015596011806,0.9025681194478803,0,0.7928063179208057,0.8455779030317792,1.014356593973939,0,1.266557005266951,1.239632881852025,1.15723290934453,0,1.002534475709069,1.266074511295358,0.5622827472640823,0,1362.307692307692,813.919413919414,806.2637362637363,1446.923076923077,948.901098901099,-0.316528,0.019531,0.920166,6.482391,2.549591,2.743988,1,4,1,1,4,100.000000
2021-04-07 12:40:53.663,0.6154770026519123,0.5172844603264318,0.8058969157133022,0,0.2608053798011918,0.597890542581043,0.7952297251553958,0,0.7928063179208057,0.7505513316731022,0.4935547029842756,0,1.266557005266951,1.204392663544462,1.171570286456369,0,1.002534475709069,1.160010118178519,0.8065103743086787,0,114.029304029304,811.9047619047619,781.6849816849817,157.1428571428571,810.6959706959707,-0.308228,0.028503,0.929688,5.914154,1.405640,2.953339,1,4,1,1,4,100.000000
2021-04-07 12:40:54.642,0.6154770026519123,0.6973270520272161,1.022320210663765,0,0.2608053798011918,0.7291944488568859,0.9439817427414325,0,0.7928063179208057,0.7431679151700982,0.4724819801324242,0,1.266557005266951,1.168585301643378,1.096148181025918,0,1.002534475709069,1.26152528657817,0.9316522250978276,0,737.3626373626374,805.4578754578755,815.5311355311355,895.3113553113553,861.8681318681319,-0.311035,0.023071,0.926758,6.243134,4.643097,2.923431,1,4,1,1,4,100.000000
2021-04-07 12:40:55.632,0.6154770026519123,0.6173986049051261,0.581760679935888,0,0.2608053798011918,0.6224247959062454,0.5348315625968035,0,0.7928063179208057,0.605227321484723,0.4708190444048002,0,1.266557005266951,1.166391812580761,1.098478824293035,0,1.002534475709069,1.226921562239777,1.128435853736111,0,275.2014652014652,790.952380952381,788.5347985347986,400.1098901098901,834.4688644688645,-0.350891,0.023743,0.908936,5.712280,1.929016,1.555176,1,4,1,1,4,100.000000
2021-04-07 12:40:56.633,0.6154770026519123,0.6173986049051261,0.1517177111562255,0,0.2608053798011918,0.6224247959062454,0.3362172507497764,0,0.7928063179208057,0.605227321484723,0.5748549463615273,0,1.266557005266951,1.166391812580761,0.9612757704669024,0,1.002534475709069,1.226921562239777,1.239347243545859,0,950.5128205128206,744.2124542124542,809.0842490842491,1033.919413919414,915.4578754578755,-0.353516,0.024658,0.907166,6.213226,2.639313,2.145844,1,4,1,1,4,100.000000
2021-04-07 12:40:57.650,0.6154770026519123,0.6173986049051261,-0.1052205952256793,0,0.2608053798011918,0.6224247959062454,-0.09896690034184044,0,0.7928063179208057,0.605227321484723,0.295664601204931,0,1.266557005266951,1.166391812580761,0.9296319004834753,0,1.002534475709069,1.226921562239777,1.074271429989663,0,1481.978021978022,836.8864468864469,810.2930402930403,1618.571428571429,1004.908424908425,-0.348572,0.023438,0.910828,5.824432,2.228088,2.100983,1,4,1,1,4,100.000000
2021-04-07 12:40:58.626,0.6154770026519123,0.6173986049051261,0.7929659408373415,0,0.2608053798011918,0.6224247959062454,0.6392291585677068,0,0.7928063179208057,0.605227321484723,0.5366422551792478,0,1.266557005266951,1.166391812580761,0.989990846986211,0,1.002534475709069,1.226921562239777,0.7766046441236524,0,175.2747252747253,778.8644688644689,782.4908424908425,269.1575091575091,722.8571428571429,-0.349304,0.031311,0.911316,6.250610,2.452393,2.998199,1,4,1,1,4,100.000000
2021-04-07 12:40:59.629,0.6154770026519123,0.6173986049051261,0.6467413927493505,0,0.2608053798011918,0.6224247959062454,0.5439848250877399,0,0.7928063179208057,0.605227321484723,0.5322477915698234,0,1.266557005266951,1.166391812580761,0.9897927525508354,0,1.002534475709069,1.226921562239777,0.8807692316012101,0,891.2820512820513,783.6996336996338,780.0732600732601,1007.728937728938,394.8717948717949,-0.352661,0.026855,0.907776,6.003876,2.878571,2.467346,1,4,1,1,4,100.000000
2021-04-07 12:41:00.627,0.6154770026519123,0.4905034389627641,0.6057598594104193,0,0.2608053798011918,0.3673731583645674,0.5885196366397282,0,0.7928063179208057,0.6432676101299257,0.7932319249719488,0,1.266557005266951,1.22289765876574,0.9718344166392027,0,1.002534475709069,1.209273900605056,1.031334487621338,0,562.4908424908425,794.981684981685,800.2197802197802,723.2600732600732,780.4761904761905,-0.356323,0.033752,0.916260,5.338440,3.319702,4.321594,1,4,1,1,4,100.000000
2021-04-07 12:41:01.665,0.6154770026519123,0.9509704887008424,1.008397112006837,0,0.2608053798011918,0.592507542484587,0.8832679371721082,0,0.7928063179208057,0.7708969860427217,0.8456677657557229,0,1.266557005266951,1.263237527066421,1.051988949297935,0,1.002534475709069,1.319698690744058,1.01207135549306,0,133.7728937728938,789.7435897435897,856.2271062271062,222.4175824175824,766.3736263736264,-0.359314,0.034119,0.909790,5.719757,2.557068,4.388885,1,4,1,1,4,100.000000
2021-04-07 12:41:02.628,0.6154770026519123,1.100601113755903,0.8395624421670052,0,0.2608053798011918,0.7165110664142105,0.6984208871676979,0,0.7928063179208057,0.7708969860427217,0.701457507174051,0,1.266557005266951,1.275640248338425,1.003448008429411,0,1.002534475709069,1.394204210498656,1.004453721762552,0,900.1465201465202,768.7912087912088,788.9377289377289,1009.74358974359,849.3772893772895,-0.361938,0.047424,0.910828,5.959015,2.504730,3.917847,1,4,1,1,4,100.000000
2021-04-07 12:41:03.653,0.6154770026519123,0.2177460878397065,0.576223327669663,0,0.2608053798011918,-0.05504668291866067,0.4371674204439638,0,0.7928063179208057,0.9455945312115162,0.6871761936399162,0,1.266557005266951,1.280443784562623,0.9312785965627166,0,1.002534475709069,1.276220448471583,0.9564392401073986,0,562.4908424908425,769.1941391941392,771.2087912087912,732.5274725274726,779.6703296703297,-0.363098,0.040833,0.910706,5.398254,2.504730,2.998199,1,4,1,1,4,95.000000
2021-04-07 12:41:04.629,0.6154770026519123,-0.1197215154420221,-0.1538598769529897,0,0.2608053798011918,-0.05381119974579717,0.0399261327497784,0,0.7928063179208057,0.873349553425955,0.5083766795545298,0,1.266557005266951,1.4403806570685,0.9315102975742594,0,1.002534475709069,1.231164067517443,1.072151230206605,0,192.1978021978022,802.2344322344322,799.0109890109891,262.7106227106227,786.9230769230769,-0.364929,0.043030,0.903564,5.944061,2.811279,2.975769,1,4,1,1,4,95.000000
2021-04-07 12:41:05.633,0.6154770026519123,-0.2251940847425614,0.525544122404804,0,0.2608053798011918,0.1610893084045304,0.6265968662147544,0,0.7928063179208057,0.6854493700713898,0.7049656890405375,0,1.266557005266951,1.44263048334645,1.094430704647773,0,1.002534475709069,1.316852621907163,0.9585992508833466,0,949.7069597069598,789.7435897435897,803.4432234432235,1024.652014652015,736.5567765567765,-0.370850,0.047913,0.907104,5.936584,2.018738,2.930908,1,4,1,1,4,95.000000
2021-04-07 12:41:06.677,0.6154770026519123,0.0405462133764804,0.06283655175390274,0,0.2608053798011918,-0.07405083272692939,0.07266720107633728,0,0.7928063179208057,0.9989237105209662,0.391818164176058,0,1.266557005266951,1.387222178441852,1.009015781631897,0,1.002534475709069,1.443394570942348,0.9133094118681103,0,664.4322344322344,782.4908424908425,796.5934065934066,838.4981684981685,799.8168498168499,-0.366821,0.035461,0.900757,9.129181,3.117828,6.639404,1,4,1,1,4,95.000000
2021-04-07 12:41:07.644,0.6154770026519123,-0.131751944827324,-0.09913876283486781,0,0.2608053798011918,0.1364435686947764,-0.1752699197916075,0,0.7928063179208057,0.9446873738931378,0.4185756355653707,0,1.266557005266951,1.394785631536833,0.8845594358961636,0,1.002534475709069,1.629146932304471,0.8723205789709143,0,1247.472527472527,768.7912087912088,798.6080586080586,1292.600732600733,732.1245421245421,-0.400391,0.116943,0.882385,6.340332,5.921631,4.493561,1,4,1,1,4,95.000000
2021-04-07 12:41:08.658,0.6154770026519123,0.06361023362541883,-0.1740562543452672,0,0.2608053798011918,0.3036811432502318,-0.1047467802211974,0,0.7928063179208057,0.8693102019611421,0.1938387547975191,0,1.266557005266951,1.400050647359231,1.09734748430778,0,1.002534475709069,1.639700823815051,1.005169821498731,0,0,767.5824175824176,786.1172161172161,0,682.1611721611722,-0.410889,0.069397,0.882874,6.190796,-2.115936,-4.456177,1,4,1,1,4,95.000000
2021-04-07 12:41:09.691,0.6154770026519123,0.06361023362541883,0.05470388281972709,0,0.2608053798011918,0.3036811432502318,0.07099934859399412,0,0.7928063179208057,0.8693102019611421,0.4518127687795548,0,1.266557005266951,1.400050647359231,1.001729087991352,0,1.002534475709069,1.639700823815051,0.9610235813909419,0,1595.201465201465,830.8424908424909,813.5164835164835,1613.333333333333,634.2124542124542,-0.414917,0.034058,0.881165,6.101074,1.629944,3.028107,1,4,4,1,4,95.000000
2021-04-07 12:41:10.640,0.6154770026519123,0.06361023362541883,-0.1315267439813475,0,0.2608053798011918,0.3036811432502318,-0.0446995230087173,0,0.7928063179208057,0.8693102019611421,0.591925666609433,0,1.266557005266951,1.400050647359231,0.953934533203356,0,1.002534475709069,1.639700823815051,0.8199119103178953,0,1330.476190476191,762.7472527472528,799.4139194139194,1385.274725274725,865.0915750915751,-0.416504,0.024780,0.878845,5.936584,2.983246,-2.766418,1,4,1,1,4,95.000000
2021-04-07 12:41:11.633,0.6154770026519123,0.06361023362541883,0.3818401710284016,0,0.2608053798011918,0.3036811432502318,0.2828429357523508,0,0.7928063179208057,0.8693102019611421,0.6742349067546698,0,1.266557005266951,1.400050647359231,0.9737419546515967,0,1.002534475709069,1.639700823815051,0.93949113397669,0,1077.838827838828,778.4615384615385,799.8168498168499,1117.326007326007,798.6080586080586,-0.411377,0.028748,0.878540,5.757141,0.104675,2.938385,1,4,1,1,4,95.000000
2021-04-07 12:41:12.649,0.6154770026519123,0.9633819070276026,0.5823470610210189,0,0.2608053798011918,0.8722423454832762,0.5428275221742047,0,0.7928063179208057,0.9185891270576378,0.8000954745888726,0,1.266557005266951,1.381548135047905,0.9107272049250048,0,1.002534475709069,1.503537850318229,0.9554053779871927,0,12.08791208791209,830.8424908424909,810.6959706959707,121.6849816849817,724.4688644688645,-0.392029,0.014893,0.897217,5.914154,1.510315,2.467346,1,4,1,1,4,95.000000
2021-04-07 12:41:13.634,0.6154770026519123,-0.1728931258302004,0.4334653301342777,0,0.2608053798011918,-0.363228215207418,0.5402700169037506,0,0.7928063179208057,0.5273404490755785,0.8000954745888726,0,1.266557005266951,1.242865107834752,1.010501825995875,0,1.002534475709069,1.474510522233064,0.8635776137885331,0,506.0805860805861,784.9084249084249,798.6080586080586,652.7472527472528,587.0695970695971,-0.386475,0.017212,0.896667,6.265564,1.644897,2.370148,1,4,1,1,4,100.000000
2021-04-07 12:41:14.646,0.6154770026519123,-0.3411237608281826,-0.46830911343104,0,0.2608053798011918,-0.3626344514675785,-0.2999906960050111,0,0.7928063179208057,0.5802284691661502,0.418724293963146,0,1.266557005266951,1.129998546859581,0.9955922037980288,0,1.002534475709069,1.231087566694454,0.548652960428414,0,1110.476190476191,762.3443223443223,806.6666666666667,1153.992673992674,779.6703296703297,-0.369751,0.000000,0.905396,5.368347,1.644897,2.848663,1,4,1,1,4,100.000000
2021-04-07 12:41:15.643,0.6154770026519123,0.1404647487259052,0.002675074048317372,0,0.2608053798011918,-0.05896427740356756,-0.2570916788774404,0,0.7928063179208057,0.9852278265669453,0.4563045425673526,0,1.266557005266951,1.056497935433286,0.9767025403582758,0,1.002534475709069,1.167174237787375,0.6792402794755117,0,904.981684981685,796.996336996337,798.2051282051282,1000.07326007326,967.8388278388279,-0.366638,0.020691,0.905762,6.639404,2.325287,2.669220,1,4,1,1,4,100.000000
2021-04-07 12:41:16.644,0.6154770026519123,0.3815507020308873,0.7271448112481423,0,0.2608053798011918,0.02702748171191041,0.7331089224749268,0,0.7928063179208057,0.9582678804237993,0.8428030820544191,0,1.266557005266951,1.0941279268349,1.131908087183179,0,1.002534475709069,1.305353083860208,0.7301700042920106,0,1486.007326007326,765.1648351648352,791.7582417582418,1578.681318681319,825.6043956043957,-0.358582,0.021484,0.904175,6.183319,2.220612,1.988831,1,4,1,1,4,100.000000
2021-04-07 12:41:17.653,0.6154770026519123,0.3815507020308873,0.01512927303643492,0,0.2608053798011918,0.02702748171191041,0.06662219130011875,0,0.7928063179208057,0.9582678804237993,0.6529713778033492,0,1.266557005266951,1.0941279268349,1.056768059846786,0,1.002534475709069,1.305353083860208,0.7364220762508549,0,1175.347985347985,747.4358974358975,802.6373626373627,1213.223443223443,798.6080586080586,-0.356873,0.025330,0.915466,7.140350,1.570129,2.250519,1,4,1,1,4,100.000000
2021-04-07 12:41:18.649,0.6154770026519123,0.3815507020308873,-0.1787786767179145,0,0.2608053798011918,0.02702748171191041,-0.07282514324960121,0,0.7928063179208057,0.9582678804237993,0.6172752387631345,0,1.266557005266951,1.0941279268349,0.9884416094376289,0,1.002534475709069,1.305353083860208,0.8075323686323906,0,933.5897435897436,799.8168498168499,801.025641025641,1015.384615384615,802.2344322344322,-0.354431,0.020081,0.911194,6.430054,2.175751,2.497253,1,4,1,1,4,100.000000
2021-04-07 12:41:19.663,0.6154770026519123,0.3815507020308873,0.1109631005245966,0,0.2608053798011918,0.02702748171191041,0.3232708910123765,0,0.7928063179208057,0.9582678804237993,0.6878704519992863,0,1.266557005266951,1.0941279268349,1.040840613771714,0,1.002534475709069,1.305353083860208,1.012051148732671,0,1526.703296703297,775.6410256410256,820.7692307692308,1630.25641025641,662.4175824175825,-0.317444,0.041992,0.931885,3.753357,-1.151428,8.299255,1,4,1,1,4,100.000000
2021-04-07 12:41:20.655,0.6154770026519123,0.2760446721593672,1.011161313018761,0,0.2608053798011918,0.3101464628510554,1.050305255909392,0,0.7928063179208057,0.6636255166230968,0.9988595294411836,0,1.266557005266951,1.156034078724842,1.140355525807418,0,1.002534475709069,1.181834816132899,0.8944534517260037,0,1250.29304029304,779.2673992673992,811.9047619047619,1268.021978021978,797.8021978021978,-0.285706,0.039612,0.937683,6.071167,2.213135,2.803802,1,4,1,1,4,100.000000
2021-04-07 12:41:21.703,0.6154770026519123,0.8442956378829836,1.247212330904211,0,0.2608053798011918,0.5581497287793944,1.148607626879082,0,0.7928063179208057,0.7934516095541824,0.8167328897056999,0,1.266557005266951,1.180062162359524,1.063451349718097,0,1.002534475709069,1.170317492155123,0.8088212516830637,0,1278.095238095238,820.3663003663004,796.1904761904763,1191.465201465202,770.4029304029305,-0.307190,0.037781,0.923523,6.616974,3.648682,2.048645,1,4,1,1,4,100.000000
2021-04-07 12:41:22.648,0.6154770026519123,1.072069239978755,1.08719693634019,0,0.2608053798011918,0.6965850298566181,1.038428586962519,0,0.7928063179208057,0.7838990653766119,0.8306232620723624,0,1.266557005266951,1.290399369595254,0.9596086506694964,0,1.002534475709069,1.316836055118137,1.038462418052236,0,1530.732600732601,778.4615384615385,792.5641025641025,4.432234432234432,830.8424908424909,-0.307068,0.041443,0.929321,6.041260,2.153320,1.577606,1,4,1,1,4,100.000000
2021-04-07 12:41:23.656,0.6154770026519123,1.072069239978755,0.8172114555827648,0,0.2608053798011918,0.6965850298566181,0.8551425258747372,0,0.7928063179208057,0.7838990653766119,1.00413913799501,0,1.266557005266951,1.290399369595254,1.035314173403281,0,1.002534475709069,1.316836055118137,1.105560590801093,0,136.1904761904762,831.6483516483516,811.5018315018315,149.0842490842491,718.021978021978,-0.323425,0.045959,0.923401,6.497345,2.901001,5.794525,1,4,1,1,4,100.000000
2021-04-07 12:41:24.682,0.6154770026519123,1.072069239978755,0.9023782956556647,0,0.2608053798011918,0.6965850298566181,0.8641306928359764,0,0.7928063179208057,0.7838990653766119,1.051468957131855,0,1.266557005266951,1.290399369595254,1.105299211594094,0,1.002534475709069,1.316836055118137,1.075195311886358,0,567.3260073260074,674.9084249084249,802.6373626373627,4.835164835164836,810.2930402930403,-0.335327,0.031494,0.850647,-10.916138,-7.977753,29.324036,1,4,1,1,4,100.000000
2021-04-07 12:41:25.632,0.6154770026519123,1.072069239978755,0.8879246685869863,0,0.2608053798011918,0.6965850298566181,0.9183966134997792,0,0.7928063179208057,0.7838990653766119,0.8314255081795889,0,1.266557005266951,1.290399369595254,1.010610268906763,0,1.002534475709069,1.316836055118137,1.151905416715993,0,22.16117216117216,767.5824175824176,786.1172161172161,104.3589743589744,741.7948717948718,-0.117737,-0.164490,0.960999,6.243134,-1.009369,11.334839,1,4,1,1,4,100.000000
2021-04-07 12:41:26.513,,,,,,,,,,,,,,,,,,,,,,,,,,,,,,,,,,,,,,/muse/elements/blink
2021-04-07 12:41:26.643,0.6154770026519123,1.072069239978755,1.474282103896817,0,0.2608053798011918,0.6965850298566181,1.198172191966145,0,0.7928063179208057,0.7838990653766119,0.7754379815113085,0,1.266557005266951,1.290399369595254,1.122959518433787,0,1.002534475709069,1.316836055118137,0.8214224633919887,0,1282.930402930403,754.6886446886447,798.6080586080586,1120.549450549451,784.9084249084249,-0.164856,-0.019043,0.928223,16.890106,22.355652,-76.719513,1,4,4,1,4,100.000000
2021-04-07 12:41:27.268,,,,,,,,,,,,,,,,,,,,,,,,,,,,,,,,,,,,,,/muse/elements/blink
2021-04-07 12:41:27.337,,,,,,,,,,,,,,,,,,,,,,,,,,,,,,,,,,,,,,/muse/elements/blink
2021-04-07 12:41:27.650,0.6154770026519123,1.072069239978755,1.323871535679762,0,0.2608053798011918,0.6965850298566181,0.9806743814903981,0,0.7928063179208057,0.7838990653766119,0.5056138332092873,0,1.266557005266951,1.290399369595254,1.086931069676511,0,1.002534475709069,1.316836055118137,0.841800528668442,0,1564.578754578755,888.0586080586081,871.941391941392,132.1611721611722,821.978021978022,0.080688,-0.134766,0.982361,2.878571,6.273041,4.164581,1,2,4,1,4,100.000000
2021-04-07 12:41:27.777,,,,,,,,,,,,,,,,,,,,,,,,,,,,,,,,,,,,,,/muse/elements/blink
2021-04-07 12:41:28.656,0.6154770026519123,1.072069239978755,1.323871535679762,0,0.2608053798011918,0.6965850298566181,0.9806743814903981,0,0.7928063179208057,0.7838990653766119,0.5056138332092873,0,1.266557005266951,1.290399369595254,1.086931069676511,0,1.002534475709069,1.316836055118137,0.841800528668442,0,1468.278388278388,1193.479853479854,1023.040293040293,24.17582417582418,946.4835164835165,0.047241,-0.094788,0.952454,8.097382,9.727325,7.596436,1,2,4,1,4,100.000000
2021-04-07 12:41:28.788,,,,,,,,,,,,,,,,,,,,,,,,,,,,,,,,,,,,,,/muse/elements/blink
2021-04-07 12:41:29.300,,,,,,,,,,,,,,,,,,,,,,,,,,,,,,,,,,,,,,/muse/elements/blink
2021-04-07 12:41:29.538,,,,,,,,,,,,,,,,,,,,,,,,,,,,,,,,,,,,,,/muse/elements/blink
2021-04-07 12:41:29.653,0.6154770026519123,1.072069239978755,1.323871535679762,0,0.2608053798011918,0.6965850298566181,0.9806743814903981,0,0.7928063179208057,0.7838990653766119,0.5056138332092873,0,1.266557005266951,1.290399369595254,1.086931069676511,0,1.002534475709069,1.316836055118137,0.841800528668442,0,0,33.44322344322345,400.1098901098901,1638.315018315018,782.4908424908425,0.118652,-0.113953,0.973206,-5.046844,-10.594635,15.372314,1,2,4,1,4,100.000000
2021-04-07 12:41:30.664,0.6154770026519123,1.072069239978755,1.323871535679762,0,0.2608053798011918,0.6965850298566181,0.9806743814903981,0,0.7928063179208057,0.7838990653766119,0.5056138332092873,0,1.266557005266951,1.290399369595254,1.086931069676511,0,1.002534475709069,1.316836055118137,0.841800528668442,0,692.6373626373627,804.2490842490843,887.6556776556777,959.7802197802198,725.6776556776557,-0.513611,0.063599,0.826965,7.574005,7.491760,17.705078,1,4,2,4,4,100.000000
2021-04-07 12:41:31.441,,,,,,,,,,,,,,,,,,,,,,,,,,,,,,,,,,,,,,/muse/elements/blink
2021-04-07 12:41:31.564,,,,,,,,,,,,,,,,,,,,,,,,,,,,,,,,,,,,,,/muse/elements/blink
2021-04-07 12:41:31.642,0.6154770026519123,1.072069239978755,1.323871535679762,0,0.2608053798011918,0.6965850298566181,0.9806743814903981,0,0.7928063179208057,0.7838990653766119,0.5056138332092873,0,1.266557005266951,1.290399369595254,1.086931069676511,0,1.002534475709069,1.316836055118137,0.841800528668442,0,1625.018315018315,792.1611721611722,871.1355311355312,1328.864468864469,879.1941391941392,-0.559937,0.127502,0.788757,11.521759,3.229980,-7.581482,1,4,4,2,4,100.000000
2021-04-07 12:41:32.006,,,,,,,,,,,,,,,,,,,,,,,,,,,,,,,,,,,,,,/muse/elements/blink
2021-04-07 12:41:32.655,0.6154770026519123,1.072069239978755,1.323871535679762,0,0.2608053798011918,0.6965850298566181,0.9806743814903981,0,0.7928063179208057,0.7838990653766119,0.5056138332092873,0,1.266557005266951,1.290399369595254,1.086931069676511,0,1.002534475709069,1.316836055118137,0.841800528668442,0,1278.901098901099,786.1172161172161,706.7399267399268,1322.014652014652,753.4798534798535,-0.507080,0.065308,0.825195,7.230072,6.332855,-2.519684,1,2,4,2,4,100.000000
2021-04-07 12:41:32.663,,,,,,,,,,,,,,,,,,,,,,,,,,,,,,,,,,,,,,/muse/elements/blink
2021-04-07 12:41:33.651,0.6154770026519123,1.072069239978755,1.323871535679762,0,0.2608053798011918,0.6965850298566181,0.9806743814903981,0,0.7928063179208057,0.7838990653766119,0.5056138332092873,0,1.266557005266951,1.290399369595254,1.086931069676511,0,1.002534475709069,1.316836055118137,0.841800528668442,0,126.9230769230769,865.0915750915751,874.3589743589744,168.4249084249084,864.2857142857143,-0.523865,0.032715,0.810486,5.188904,2.669220,2.676697,1,4,4,1,4,95.000000
2021-04-07 12:41:34.647,0.6154770026519123,1.072069239978755,0.7579201484579491,0,0.2608053798011918,0.6965850298566181,0.4433713862344978,0,0.7928063179208057,0.7838990653766119,0.3605220973171102,0,1.266557005266951,1.290399369595254,1.243720770154265,0,1.002534475709069,1.316836055118137,1.353387404121756,0,1574.249084249084,744.2124542124542,834.8717948717949,89.85347985347985,879.5970695970697,-0.511047,0.047607,0.825623,6.542206,2.938385,2.370148,1,4,1,1,4,95.000000
2021-04-07 12:41:35.686,0.6154770026519123,1.072069239978755,0.5764200515686316,0,0.2608053798011918,0.6965850298566181,0.3131876434825642,0,0.7928063179208057,0.7838990653766119,0.5121553304260731,0,1.266557005266951,1.290399369595254,1.210539382573906,0,1.002534475709069,1.316836055118137,1.238199901077493,0,1418.717948717949,851.7948717948718,801.8315018315019,1425.567765567766,801.8315018315019,-0.496155,0.031311,0.836426,2.168274,1.016846,8.635712,1,4,1,1,4,95.000000
2021-04-07 12:41:36.684,0.6154770026519123,1.072069239978755,0.9750580313714835,0,0.2608053798011918,0.6965850298566181,0.6099468258900869,0,0.7928063179208057,0.7838990653766119,0.6842358097255667,0,1.266557005266951,1.290399369595254,1.255436562337805,0,1.002534475709069,1.316836055118137,1.198505924650216,0,1003.296703296703,802.2344322344322,792.967032967033,892.4908424908425,697.8754578754579,-0.488525,0.029724,0.842346,5.921631,2.287903,2.257996,1,4,1,1,4,95.000000
2021-04-07 12:41:37.702,0.6154770026519123,1.072069239978755,0.6801892796539942,0,0.2608053798011918,0.6965850298566181,0.07543983772279395,0,0.7928063179208057,0.7838990653766119,0.4271972362232906,0,1.266557005266951,1.290399369595254,1.411136354517207,0,1.002534475709069,1.316836055118137,1.200484282328771,0,31.83150183150183,911.0256410256411,1151.172161172161,111.6117216117216,944.8717948717949,-0.031982,0.073242,1.025635,1.457977,-7.162781,-3.110352,1,4,1,1,4,95.000000
2021-04-07 12:41:38.672,0.6154770026519123,1.072069239978755,0.3137466176400375,0,0.2608053798011918,0.6965850298566181,-0.2141146844323298,0,0.7928063179208057,0.7838990653766119,0.05900270786210455,0,1.266557005266951,1.290399369595254,1.429950331324211,0,1.002534475709069,1.316836055118137,1.034267326188106,0,1473.113553113553,836.8864468864469,854.2124542124542,1555.311355311355,810.6959706959707,-0.464661,0.049438,0.851379,8.441315,4.381409,2.833710,1,4,2,1,4,95.000000
2021-04-07 12:41:39.648,0.6154770026519123,1.072069239978755,0.3137466176400375,0,0.2608053798011918,0.6965850298566181,-0.2141146844323298,0,0.7928063179208057,0.7838990653766119,0.05900270786210455,0,1.266557005266951,1.290399369595254,1.429950331324211,0,1.002534475709069,1.316836055118137,1.034267326188106,0,1277.692307692308,759.1208791208792,812.3076923076924,1256.739926739927,809.8901098901099,-0.457458,0.057007,0.861755,7.237549,3.947754,2.871094,1,4,4,1,4,95.000000
2021-04-07 12:41:40.642,0.6154770026519123,1.072069239978755,0.08767326136301254,0,0.2608053798011918,0.6965850298566181,0.1038542693515229,0,0.7928063179208057,0.7838990653766119,0.6662619662050436,0,1.266557005266951,1.290399369595254,1.370821525938346,0,1.002534475709069,1.316836055118137,1.43212307357352,0,36.26373626373626,981.941391941392,830.4395604395604,123.2967032967033,884.0293040293041,-0.453369,0.066040,0.858154,6.437531,2.960815,3.162689,1,4,4,1,4,95.000000
2021-04-07 12:41:41.632,0.6154770026519123,1.072069239978755,0.4406040561591282,0,0.2608053798011918,0.6965850298566181,0.3197356037571973,0,0.7928063179208057,0.7838990653766119,0.7484021267834168,0,1.266557005266951,1.290399369595254,1.366810342608447,0,1.002534475709069,1.316836055118137,1.233553741854083,0,1514.212454212454,776.0439560439561,802.2344322344322,1600.842490842491,1124.981684981685,-0.481750,0.046143,0.848389,7.551575,-0.986938,2.243042,1,4,4,1,4,95.000000
2021-04-07 12:41:42.689,0.6154770026519123,1.072069239978755,0.1133647347588328,0,0.2608053798011918,0.6965850298566181,0.03035913363494261,0,0.7928063179208057,0.7838990653766119,0.367803473621893,0,1.266557005266951,1.290399369595254,1.299274747219146,0,1.002534475709069,1.316836055118137,1.089260234065142,0,934.3956043956044,861.4652014652015,809.8901098901099,816.3369963369963,735.7509157509157,-0.473083,0.030396,0.840942,3.304749,0.500946,6.258087,1,4,4,1,4,95.000000
2021-04-07 12:41:43.702,0.6154770026519123,1.072069239978755,0.2120520337653342,0,0.2608053798011918,0.6965850298566181,0.2996294141872071,0,0.7928063179208057,0.7838990653766119,0.4054838324690182,0,1.266557005266951,1.290399369595254,1.28490225453713,0,1.002534475709069,1.316836055118137,1.087201648471437,0,1338.534798534798,834.8717948717949,909.8168498168499,1295.421245421245,903.3699633699634,-0.339294,0.019531,0.907288,5.114136,-11.200256,3.701019,1,4,1,1,4,100.000000
2021-04-07 12:41:44.635,0.6154770026519123,1.072069239978755,0.4826758065509553,0,0.2608053798011918,0.6965850298566181,0.4305862309988003,0,0.7928063179208057,0.7838990653766119,0.3686929978771097,0,1.266557005266951,1.290399369595254,1.240910022567949,0,1.002534475709069,1.316836055118137,1.026853709697264,0,1496.080586080586,811.9047619047619,765.5677655677656,1580.29304029304,672.4908424908425,-0.357178,0.018494,0.912354,6.392670,4.381409,-0.403748,1,4,1,1,4,100.000000
2021-04-07 12:41:45.694,0.6154770026519123,1.072069239978755,0.4839358881510486,0,0.2608053798011918,0.6965850298566181,0.05366328231485337,0,0.7928063179208057,0.7838990653766119,0.1074528278014856,0,1.266557005266951,1.290399369595254,1.200918199966067,0,1.002534475709069,1.316836055118137,0.930299433558703,0,62.85714285714286,807.0695970695971,816.3369963369963,153.1135531135531,818.3516483516484,-0.381226,0.020508,0.888245,6.003876,2.736511,2.452393,1,4,4,1,4,100.000000
2021-04-07 12:41:46.680,0.6154770026519123,1.072069239978755,0.570831720990258,0,0.2608053798011918,0.6965850298566181,0.6814198652987741,0,0.7928063179208057,0.7838990653766119,1.019898400702082,0,1.266557005266951,1.290399369595254,1.354467199662051,0,1.002534475709069,1.316836055118137,1.207117058661256,0,1263.992673992674,787.3260073260074,855.4212454212454,1281.721611721612,757.1062271062272,-0.380432,-0.004272,0.912659,-1.031799,5.353394,19.432220,1,4,4,1,4,100.000000
2021-04-07 12:41:47.652,0.6154770026519123,1.072069239978755,0.004330433348933654,0,0.2608053798011918,0.6965850298566181,0.3370617996317287,0,0.7928063179208057,0.7838990653766119,0.698198293694813,0,1.266557005266951,1.290399369595254,1.396782189630401,0,1.002534475709069,1.316836055118137,1.139743939418884,0,1376.007326007326,826.4102564102565,843.7362637362637,1470.29304029304,780.4761904761905,-0.386902,0.029785,0.903992,4.859924,-1.248627,6.983337,1,4,1,1,4,100.000000
2021-04-07 12:41:48.705,,,,,,,,,,,,,,,,,,,,,,,,,,,,,,,,,,,,,,/muse/elements/blink
2021-04-07 12:41:48.708,0.6154770026519123,1.072069239978755,0.8802627095962903,0,0.2608053798011918,0.6965850298566181,0.5669754339962163,0,0.7928063179208057,0.7838990653766119,0.8089865105252289,0,1.266557005266951,1.290399369595254,1.236176225163382,0,1.002534475709069,1.316836055118137,1.052265262367556,0,1099.59706959707,786.1172161172161,817.1428571428571,1014.578754578755,623.3333333333334,-0.392639,0.068848,0.890320,9.129181,6.355286,3.476715,1,2,1,1,4,100.000000
2021-04-07 12:41:49.632,0.6154770026519123,1.072069239978755,0.6968248847163352,0,0.2608053798011918,0.6965850298566181,0.3278705429077964,0,0.7928063179208057,0.7838990653766119,0.8989178163281492,0,1.266557005266951,1.290399369595254,1.193234548021685,0,1.002534475709069,1.316836055118137,1.117749342705529,0,1504.542124542125,870.3296703296703,831.2454212454213,53.99267399267399,942.4542124542124,-0.382080,0.150330,0.855225,19.207916,-11.506805,-21.720123,1,2,4,1,4,100.000000
2021-04-07 12:41:50.246,,,,,,,,,,,,,,,,,,,,,,,,,,,,,,,,,,,,,,/muse/elements/blink
2021-04-07 12:41:50.455,,,,,,,,,,,,,,,,,,,,,,,,,,,,,,,,,,,,,,/muse/elements/blink
2021-04-07 12:41:50.653,0.6154770026519123,1.072069239978755,1.246143729051252,0,0.2608053798011918,0.6965850298566181,0.7326967081590856,0,0.7928063179208057,0.7838990653766119,0.9306626075402876,0,1.266557005266951,1.290399369595254,1.212048085356401,0,1.002534475709069,1.316836055118137,1.117025095557714,0,811.0989010989011,791.7582417582418,792.5641025641025,47.94871794871795,617.6923076923077,-0.112427,0.114868,0.988586,5.906677,7.274933,-0.149536,1,2,4,1,4,100.000000
2021-04-07 12:41:50.856,,,,,,,,,,,,,,,,,,,,,,,,,,,,,,,,,,,,,,/muse/elements/blink
2021-04-07 12:41:51.477,,,,,,,,,,,,,,,,,,,,,,,,,,,,,,,,,,,,,,/muse/elements/blink
2021-04-07 12:41:51.700,0.6154770026519123,1.072069239978755,1.474352203669297,0,0.2608053798011918,0.6965850298566181,0.8771502959001186,0,0.7928063179208057,0.7838990653766119,0.8648450743552947,0,1.266557005266951,1.290399369595254,1.233807703571279,0,1.002534475709069,1.316836055118137,1.146505746459021,0,1328.864468864469,750.2564102564103,761.1355311355312,1625.824175824176,861.8681318681319,-0.504333,-0.088501,0.809814,-75.829773,6.564636,90.536652,1,2,1,1,4,100.000000
2021-04-07 12:41:52.076,,,,,,,,,,,,,,,,,,,,,,,,,,,,,,,,,,,,,,/muse/elements/blink
2021-04-07 12:41:52.363,,,,,,,,,,,,,,,,,,,,,,,,,,,,,,,,,,,,,,/muse/elements/blink
2021-04-07 12:41:52.609,,,,,,,,,,,,,,,,,,,,,,,,,,,,,,,,,,,,,,/muse/elements/blink
2021-04-07 12:41:52.648,0.6154770026519123,1.072069239978755,1.474352203669297,0,0.2608053798011918,0.6965850298566181,0.8771502959001186,0,0.7928063179208057,0.7838990653766119,0.8648450743552947,0,1.266557005266951,1.290399369595254,1.233807703571279,0,1.002534475709069,1.316836055118137,1.146505746459021,0,811.9047619047619,772.014652014652,794.1758241758242,557.6556776556777,836.0805860805862,-0.437866,0.052063,0.880249,8.927307,-5.772095,-0.515900,1,2,1,1,4,100.000000
2021-04-07 12:41:52.858,,,,,,,,,,,,,,,,,,,,,,,,,,,,,,,,,,,,,,/muse/elements/blink
2021-04-07 12:41:53.206,,,,,,,,,,,,,,,,,,,,,,,,,,,,,,,,,,,,,,/muse/elements/blink
2021-04-07 12:41:53.523,,,,,,,,,,,,,,,,,,,,,,,,,,,,,,,,,,,,,,/muse/elements/blink
2021-04-07 12:41:53.654,0.6154770026519123,1.072069239978755,1.474352203669297,0,0.2608053798011918,0.6965850298566181,0.8771502959001186,0,0.7928063179208057,0.7838990653766119,0.8648450743552947,0,1.266557005266951,1.290399369595254,1.233807703571279,0,1.002534475709069,1.316836055118137,1.146505746459021,0,481.5018315018315,742.1978021978023,807.8754578754579,0,731.7216117216118,-0.351868,0.016663,0.876831,-3.693542,13.540497,13.854523,1,2,1,1,4,100.000000
2021-04-07 12:41:53.929,,,,,,,,,,,,,,,,,,,,,,,,,,,,,,,,,,,,,,/muse/elements/blink
2021-04-07 12:41:54.528,,,,,,,,,,,,,,,,,,,,,,,,,,,,,,,,,,,,,,/muse/elements/blink
2021-04-07 12:41:54.656,0.6154770026519123,1.072069239978755,1.329633736940493,0,0.2608053798011918,0.6965850298566181,0.7751142579344352,0,0.7928063179208057,0.7838990653766119,0.7594668118221728,0,1.266557005266951,1.290399369595254,1.167293481303401,0,1.002534475709069,1.316836055118137,1.004151826215721,0,938.021978021978,859.4505494505495,786.5201465201466,1565.384615384615,1027.875457875458,-0.323669,0.005493,0.950928,5.061798,0.904694,5.390778,1,2,1,1,4,100.000000
2021-04-07 12:41:55.209,,,,,,,,,,,,,,,,,,,,,,,,,,,,,,,,,,,,,,/muse/elements/blink
2021-04-07 12:41:55.528,,,,,,,,,,,,,,,,,,,,,,,,,,,,,,,,,,,,,,/muse/elements/blink
2021-04-07 12:41:55.719,0.6154770026519123,1.072069239978755,0.8351620489260038,0,0.2608053798011918,0.6965850298566181,0.6714193441720923,0,0.7928063179208057,0.7838990653766119,0.9507159057323744,0,1.266557005266951,1.290399369595254,1.174256577986341,0,1.002534475709069,1.316836055118137,0.9964576532062825,0,1310.32967032967,793.7728937728938,802.2344322344322,1478.754578754579,1016.996336996337,-0.386597,0.018494,0.888123,8.964691,7.207642,-2.078552,1,2,4,1,4,100.000000
2021-04-07 12:41:56.159,,,,,,,,,,,,,,,,,,,,,,,,,,,,,,,,,,,,,,/muse/elements/blink
2021-04-07 12:41:56.656,0.6154770026519123,1.072069239978755,0.5605923786143719,0,0.2608053798011918,0.6965850298566181,0.4780942187012022,0,0.7928063179208057,0.7838990653766119,0.89493235531549,0,1.266557005266951,1.290399369595254,1.089324122468815,0,1.002534475709069,1.316836055118137,0.9554282732533147,0,948.0952380952381,772.014652014652,748.2417582417582,1019.81684981685,763.1501831501831,-0.376282,-0.037659,0.946838,-1.555176,-0.478516,7.603912,1,2,1,1,4,100.000000
2021-04-07 12:41:57.204,,,,,,,,,,,,,,,,,,,,,,,,,,,,,,,,,,,,,,/muse/elements/blink
2021-04-07 12:41:57.632,0.6154770026519123,1.072069239978755,1.279241975275015,0,0.2608053798011918,0.6965850298566181,0.7465034613659273,0,0.7928063179208057,0.7838990653766119,0.6802691626736501,0,1.266557005266951,1.290399369595254,1.152822001998338,0,1.002534475709069,1.316836055118137,1.180860903325696,0,660.4029304029305,776.4468864468864,781.2820512820513,670.4761904761905,836.8864468864469,-0.446289,0.022827,0.834412,1.106567,-0.560760,1.465454,1,2,1,1,4,100.000000
2021-04-07 12:41:57.743,,,,,,,,,,,,,,,,,,,,,,,,,,,,,,,,,,,,,,/muse/elements/blink
2021-04-07 12:41:58.206,,,,,,,,,,,,,,,,,,,,,,,,,,,,,,,,,,,,,,/muse/elements/blink
2021-04-07 12:41:58.589,,,,,,,,,,,,,,,,,,,,,,,,,,,,,,,,,,,,,,/muse/elements/blink
2021-04-07 12:41:58.673,0.6154770026519123,0.9602161382015778,1.055609157222849,0,0.2608053798011918,0.5391342158121591,0.4266237113259583,0,0.7928063179208057,0.8208850705223327,0.6379688109642483,0,1.266557005266951,1.433188859180925,1.310607483132661,0,1.002534475709069,1.269353281826625,1.138733181672509,0,1596.813186813187,791.3553113553114,836.4835164835165,137.3992673992674,1043.186813186813,-0.451904,0.001587,0.864319,5.323486,4.777679,3.790741,1,2,1,1,4,100.000000
2021-04-07 12:41:59.108,,,,,,,,,,,,,,,,,,,,,,,,,,,,,,,,,,,,,,/muse/elements/blink
2021-04-07 12:41:59.534,,,,,,,,,,,,,,,,,,,,,,,,,,,,,,,,,,,,,,/muse/elements/blink
2021-04-07 12:41:59.666,0.6154770026519123,0.9602161382015778,0.2764770176091552,0,0.2608053798011918,0.5391342158121591,0.2889947766976679,0,0.7928063179208057,0.8208850705223327,0.5049479980795619,0,1.266557005266951,1.433188859180925,1.2373451057388,0,1.002534475709069,1.269353281826625,1.073517077163646,0,1555.714285714286,816.3369963369963,819.1575091575091,24.17582417582418,1045.201465201465,-0.472168,0.043457,0.873535,6.190796,1.532745,4.239349,1,2,1,1,4,100.000000
2021-04-07 12:41:59.808,,,,,,,,,,,,,,,,,,,,,,,,,,,,,,,,,,,,,,/muse/elements/blink
2021-04-07 12:42:00.207,,,,,,,,,,,,,,,,,,,,,,,,,,,,,,,,,,,,,,/muse/elements/blink
2021-04-07 12:42:00.541,,,,,,,,,,,,,,,,,,,,,,,,,,,,,,,,,,,,,,/muse/elements/blink
2021-04-07 12:42:01.114,0.6154770026519123,0.9602161382015778,0.50626631668074,0,0.2608053798011918,0.5391342158121591,0.5241754671719516,0,0.7928063179208057,0.8208850705223327,0.57736961890393,0,1.266557005266951,1.433188859180925,1.230801453530854,0,1.002534475709069,1.269353281826625,1.172624225436752,0,1048.424908424908,919.4871794871796,794.5787545787546,998.0586080586081,917.0695970695971,-0.452393,0.062317,0.865967,11.656342,-1.607513,4.575806,1,2,4,1,2,100.000000
2021-04-07 12:42:01.209,,,,,,,,,,,,,,,,,,,,,,,,,,,,,,,,,,,,,,/muse/elements/blink
2021-04-07 12:42:01.213,,,,,,,,,,,,,,,,,,,,,,,,,,,,,,,,,,,,,,/muse/elements/blink
2021-04-07 12:42:01.703,0.6154770026519123,0.9602161382015778,-0.06898930719991202,0,0.2608053798011918,0.5391342158121591,0.03784534241869054,0,0.7928063179208057,0.8208850705223327,0.5358569152980019,0,1.266557005266951,1.433188859180925,1.217017277459512,0,1.002534475709069,1.269353281826625,1.285289427790331,0,1199.52380952381,799.4139194139194,886.4468864468864,1457.802197802198,783.6996336996338,-0.171814,0.058655,0.964172,18.243408,-81.885986,-38.370972,1,2,1,1,4,100.000000
2021-04-07 12:42:03.129,0.6154770026519123,0.9602161382015778,0.5101140919064638,0,0.2608053798011918,0.5391342158121591,-0.03297199013091574,0,0.7928063179208057,0.8208850705223327,0.525796742632643,0,1.266557005266951,1.433188859180925,1.219527702282846,0,1.002534475709069,1.269353281826625,1.300296096065162,0,1017.399267399267,791.7582417582418,857.8388278388279,545.5677655677656,701.9047619047619,0.052063,-0.015442,1.022827,-0.186920,-27.634277,-2.400055,1,2,1,1,4,100.000000
2021-04-07 12:42:03.181,,,,,,,,,,,,,,,,,,,,,,,,,,,,,,,,,,,,,,/muse/elements/blink
2021-04-07 12:42:03.465,,,,,,,,,,,,,,,,,,,,,,,,,,,,,,,,,,,,,,/muse/elements/blink
2021-04-07 12:42:03.520,,,,,,,,,,,,,,,,,,,,,,,,,,,,,,,,,,,,,,/muse/elements/blink
2021-04-07 12:42:03.673,0.6154770026519123,0.9602161382015778,0.9815140119009788,0,0.2608053798011918,0.5391342158121591,-0.3043891833666681,0,0.7928063179208057,0.8208850705223327,0.3560954789840281,0,1.266557005266951,1.433188859180925,1.371855057804959,0,1.002534475709069,1.269353281826625,1.179916906330922,0,379.96336996337,763.956043956044,796.1904761904763,267.948717948718,841.7216117216118,0.099548,0.038696,0.984375,-8.015137,9.525452,24.822998,1,2,4,1,2,100.000000
2021-04-07 12:42:04.444,,,,,,,,,,,,,,,,,,,,,,,,,,,,,,,,,,,,,,/muse/elements/blink
2021-04-07 12:42:04.626,0.6154770026519123,0.9602161382015778,0.9815140119009788,0,0.2608053798011918,0.5391342158121591,-0.3043891833666681,0,0.7928063179208057,0.8208850705223327,0.3560954789840281,0,1.266557005266951,1.433188859180925,1.371855057804959,0,1.002534475709069,1.269353281826625,1.179916906330922,0,1266.007326007326,811.0989010989011,838.901098901099,1228.131868131868,814.3223443223443,0.141235,0.147644,0.985596,1.181335,-11.858215,0.553284,1,4,1,1,4,95.000000
2021-04-07 12:42:04.763,,,,,,,,,,,,,,,,,,,,,,,,,,,,,,,,,,,,,,/muse/elements/blink
2021-04-07 12:42:05.626,0.6154770026519123,0.9602161382015778,0.9815140119009788,0,0.2608053798011918,0.5391342158121591,-0.3043891833666681,0,0.7928063179208057,0.8208850705223327,0.3560954789840281,0,1.266557005266951,1.433188859180925,1.371855057804959,0,1.002534475709069,1.269353281826625,1.179916906330922,0,638.2417582417582,792.967032967033,811.0989010989011,622.5274725274726,783.6996336996338,0.179199,0.127686,0.969788,5.973969,1.629944,2.332764,1,2,1,1,2,95.000000
2021-04-07 12:42:06.626,0.6154770026519123,0.1395415257326789,1.113824645482467,0,0.2608053798011918,0.05109225128244813,0.4039333507492144,0,0.7928063179208057,1.315260167890217,0.6715066356853293,0,1.266557005266951,1.294400446999932,0.9055890959499014,0,1.002534475709069,1.51992387005491,0.8299470665782936,0,912.6373626373627,814.3223443223443,817.1428571428571,964.6153846153846,790.952380952381,0.196838,0.120972,0.964050,6.355286,1.158905,2.153320,1,2,1,1,2,95.000000
2021-04-07 12:42:07.729,0.6154770026519123,0.5665669466037319,1.000240368965828,0,0.2608053798011918,0.4552968226613485,0.6045241793298854,0,0.7928063179208057,1.145204853932261,0.7461781248919894,0,1.266557005266951,1.315226761406527,0.9454257213937198,0,1.002534475709069,1.387240777421559,0.8447360547871808,0,531.0622710622711,807.8754578754579,807.8754578754579,402.1245421245421,779.6703296703297,0.227234,0.120239,0.962585,6.213226,0.149536,2.071075,1,2,1,1,2,95.000000
2021-04-07 12:42:08.802,0.6154770026519123,0.350486461527962,0.8234484968123207,0,0.2608053798011918,0.3197429746320313,0.5792918900690749,0,0.7928063179208057,0.8780945353432796,0.6653143348489856,0,1.266557005266951,1.154181880405955,0.7512970516337996,0,1.002534475709069,1.31075056859942,0.595475553684329,0,1186.630036630037,799.4139194139194,816.3369963369963,1342.161172161172,815.1282051282052,0.225525,0.117188,0.960632,6.474915,2.616882,2.878571,1,2,1,1,2,95.000000
2021-04-07 12:42:09.637,0.6154770026519123,0.3063401003635227,1.331939134306151,0,0.2608053798011918,0.06828492764578299,0.8559854824523906,0,0.7928063179208057,0.8055870728142789,0.6906209021299792,0,1.266557005266951,0.9830779064696502,0.6639809611247971,0,1.002534475709069,1.262140253981586,0.5605713683259695,0,958.974358974359,798.2051282051282,790.952380952381,930.7692307692308,843.7362637362637,0.238953,0.121765,0.974670,5.435638,6.130981,5.360870,1,2,1,1,2,95.000000
2021-04-07 12:42:10.709,0.6154770026519123,0.3490121733489335,0.6041550864454087,0,0.2608053798011918,0.008031121059154243,-0.07686173483594815,0,0.7928063179208057,0.8071713729157021,0.2594323720965905,0,1.266557005266951,1.036734253138715,0.7215658818580046,0,1.002534475709069,1.115195136319133,0.4604894747252952,0,601.978021978022,799.0109890109891,852.1978021978023,1054.065934065934,771.6117216117216,-0.527588,0.071838,0.792175,5.929108,21.391144,6.975861,1,2,1,1,2,95.000000
2021-04-07 12:42:10.790,,,,,,,,,,,,,,,,,,,,,,,,,,,,,,,,,,,,,,/muse/elements/blink
2021-04-07 12:42:12.041,,,,,,,,,,,,,,,,,,,,,,,,,,,,,,,,,,,,,,/muse/elements/blink
2021-04-07 12:42:12.335,0.6154770026519123,0.2875099991169158,0.3892157572198313,0,0.2608053798011918,-0.1306586817131211,-0.1244516319041185,0,0.7928063179208057,0.5719688620203465,0.2333757317004743,0,1.266557005266951,1.111264188374456,0.7121788902475886,0,1.002534475709069,0.9634633496827751,0.4760187679588334,0,995.2380952380953,880.4029304029305,773.6263736263736,933.1868131868132,739.7802197802198,-0.563232,0.061829,0.776184,8.538513,3.005676,1.480408,1,2,4,1,2,95.000000
2021-04-07 12:42:12.492,,,,,,,,,,,,,,,,,,,,,,,,,,,,,,,,,,,,,,/muse/elements/blink
2021-04-07 12:42:12.539,,,,,,,,,,,,,,,,,,,,,,,,,,,,,,,,,,,,,,/muse/elements/blink
2021-04-07 12:42:12.701,,,,,,,,,,,,,,,,,,,,,,,,,,,,,,,,,,,,,,/muse/elements/blink
2021-04-07 12:42:13.501,,,,,,,,,,,,,,,,,,,,,,,,,,,,,,,,,,,,,,/muse/elements/blink
2021-04-07 12:42:13.591,0.6154770026519123,0.2668481947815526,0.7950126604356119,0,0.2608053798011918,-0.1769917061339162,0.2826954900932431,0,0.7928063179208057,0.4866045447606586,0.7621507234742489,0,1.266557005266951,1.161958339179887,1.067287605268755,0,1.002534475709069,0.9887435909046063,1.483687654457992,0,666.0439560439561,826.4102564102565,776.4468864468864,573.7728937728938,854.2124542124542,-0.496704,0.023376,0.867859,6.773987,5.345917,3.506622,1,2,1,1,2,95.000000
2021-04-07 12:42:13.679,,,,,,,,,,,,,,,,,,,,,,,,,,,,,,,,,,,,,,/muse/elements/blink
2021-04-07 12:42:13.729,,,,,,,,,,,,,,,,,,,,,,,,,,,,,,,,,,,,,,/muse/elements/blink
2021-04-07 12:42:13.937,0.6154770026519123,0.2668481947815526,0.5374810198013356,0,0.2608053798011918,-0.1769917061339162,0.5158925907645382,0,0.7928063179208057,0.4866045447606586,0.6753458268586173,0,1.266557005266951,1.161958339179887,1.175234295075968,0,1.002534475709069,0.9887435909046063,1.273317016053333,0,1042.783882783883,764.7619047619048,757.5091575091575,930.3663003663004,821.1721611721612,-0.433594,-0.007141,0.878540,5.697327,1.876678,2.736511,1,2,1,1,2,100.000000
2021-04-07 12:42:14.722,0.6154770026519123,0.2668481947815526,0.1162469908924832,0,0.2608053798011918,-0.1769917061339162,0.2127939912817845,0,0.7928063179208057,0.4866045447606586,0.4605679088513863,0,1.266557005266951,1.161958339179887,1.235628521496438,0,1.002534475709069,0.9887435909046063,1.036026148632739,0,480.2930402930403,790.1465201465202,779.2673992673992,586.6666666666666,710.3663003663004,-0.415833,-0.014771,0.878845,5.375824,1.465454,2.415009,1,2,4,1,4,100.000000
2021-04-07 12:42:15.227,,,,,,,,,,,,,,,,,,,,,,,,,,,,,,,,,,,,,,/muse/elements/blink
2021-04-07 12:42:15.690,0.6154770026519123,0.2668481947815526,-0.3053290274632871,0,0.2608053798011918,-0.1769917061339162,-0.2232933265101107,0,0.7928063179208057,0.4866045447606586,0.4140070242115061,0,1.266557005266951,1.161958339179887,1.360039160214415,0,1.002534475709069,0.9887435909046063,1.254917599032392,0,226.0439560439561,788.5347985347986,784.5054945054945,278.8278388278388,1037.545787545788,-0.410950,-0.014832,0.887451,6.459961,1.196289,2.377625,1,2,4,1,4,100.000000
2021-04-07 12:42:16.663,0.6154770026519123,0.2668481947815526,-0.330046818750321,0,0.2608053798011918,-0.1769917061339162,0.01112800478260861,0,0.7928063179208057,0.4866045447606586,0.4745778094390243,0,1.266557005266951,1.161958339179887,1.368902707198,0,1.002534475709069,0.9887435909046063,1.251485315263322,0,741.3919413919414,796.1904761904763,780.0732600732601,865.8974358974359,707.948717948718,-0.393860,-0.023132,0.892212,6.534729,2.930908,2.594452,1,2,4,1,4,100.000000
2021-04-07 12:42:17.271,,,,,,,,,,,,,,,,,,,,,,,,,,,,,,,,,,,,,,/muse/elements/blink
2021-04-07 12:42:17.633,0.6154770026519123,0.2668481947815526,-0.02892655687802857,0,0.2608053798011918,-0.1769917061339162,0.1134086428112732,0,0.7928063179208057,0.4866045447606586,0.56181623150613,0,1.266557005266951,1.161958339179887,1.364227760996127,0,1.002534475709069,0.9887435909046063,1.130890244415627,0,445.2380952380952,758.7179487179487,770.8058608058608,498.4249084249084,846.1538461538462,-0.438477,0.018066,0.868774,4.172058,5.091705,11.476898,1,2,4,1,4,100.000000
2021-04-07 12:42:18.627,0.6154770026519123,0.8252858955812755,0.8594184983897581,0,0.2608053798011918,0.7729947347114151,0.6869655824273019,0,0.7928063179208057,0.7163196085851916,0.7834673024708707,0,1.266557005266951,1.402042421402327,1.238789540213162,0,1.002534475709069,1.511225814573049,1.080596162086185,0,1081.868131868132,790.1465201465202,800.2197802197802,1180.989010989011,851.7948717948718,-0.503235,0.046204,0.826233,4.762726,-0.725250,4.620667,1,2,1,1,4,100.000000
2021-04-07 12:42:19.309,,,,,,,,,,,,,,,,,,,,,,,,,,,,,,,,,,,,,,/muse/elements/blink
2021-04-07 12:42:19.562,,,,,,,,,,,,,,,,,,,,,,,,,,,,,,,,,,,,,,/muse/elements/blink
2021-04-07 12:42:19.722,0.6154770026519123,0.2115064441134876,0.439339386128951,0,0.2608053798011918,0.5045797517971369,0.3104405339604291,0,0.7928063179208057,0.5118171193699267,0.6290167956512693,0,1.266557005266951,1.498178339343909,1.131605322371747,0,1.002534475709069,1.374356975420694,1.004026914724329,0,0,772.4175824175825,788.9377289377289,0,716.8131868131868,-0.488220,0.018188,0.844360,9.308624,1.076660,-6.235657,1,2,1,1,4,100.000000
2021-04-07 12:42:20.691,0.6154770026519123,0.2115064441134876,0.9703004171505271,0,0.2608053798011918,0.5045797517971369,0.7488894567643257,0,0.7928063179208057,0.5118171193699267,0.9152860892768324,0,1.266557005266951,1.498178339343909,1.148782170925911,0,1.002534475709069,1.374356975420694,1.106873160006272,0,1275.274725274725,810.6959706959707,786.1172161172161,1389.304029304029,882.014652014652,-0.484497,0.019897,0.849060,4.867401,3.282318,3.237457,1,4,1,1,4,100.000000
2021-04-07 12:42:21.380,,,,,,,,,,,,,,,,,,,,,,,,,,,,,,,,,,,,,,/muse/elements/blink
2021-04-07 12:42:21.652,0.6154770026519123,0.2115064441134876,0.6785531127587725,0,0.2608053798011918,0.5045797517971369,0.4154365627050765,0,0.7928063179208057,0.5118171193699267,0.8936336059898697,0,1.266557005266951,1.498178339343909,1.261872696853387,0,1.002534475709069,1.374356975420694,1.231273413516861,0,141.8315018315018,799.0109890109891,795.7875457875458,178.0952380952381,834.0659340659341,-0.470093,0.023987,0.847412,5.031891,2.168274,2.878571,1,4,1,1,4,100.000000
2021-04-07 12:42:21.884,,,,,,,,,,,,,,,,,,,,,,,,,,,,,,,,,,,,,,/muse/elements/blink
2021-04-07 12:42:22.675,0.6154770026519123,0.3072725407947935,-0.2695731137536562,0,0.2608053798011918,0.6073004640434511,-0.189433988150339,0,0.7928063179208057,1.059220711376143,0.4161963500343528,0,1.266557005266951,1.432131144208957,1.380733028496265,0,1.002534475709069,1.442418619477238,1.170797777135602,0,0,751.8681318681319,752.2710622710623,0,811.5018315018315,-0.471680,0.018005,0.852844,6.669312,1.689758,2.654266,1,4,1,1,4,100.000000
2021-04-07 12:42:23.632,0.6154770026519123,0.3046396706272871,-0.2242228039408196,0,0.2608053798011918,0.7226811457682273,-0.13852373681234,0,0.7928063179208057,1.054139612482882,0.4271828492365111,0,1.266557005266951,1.534206373738833,1.348709728469948,0,1.002534475709069,1.499561809420202,1.106254629358342,0,707.948717948718,785.3113553113553,807.8754578754579,568.5347985347986,904.5787545787546,-0.468262,0.017944,0.856323,6.280518,1.510315,2.437439,1,2,1,1,4,100.000000
2021-04-07 12:42:24.431,,,,,,,,,,,,,,,,,,,,,,,,,,,,,,,,,,,,,,/muse/elements/blink
2021-04-07 12:42:24.631,0.6154770026519123,0.3046396706272871,0.6829542297913305,0,0.2608053798011918,0.7226811457682273,0.5773155793333101,0,0.7928063179208057,1.054139612482882,0.6590837177935723,0,1.266557005266951,1.534206373738833,1.247384180802818,0,1.002534475709069,1.499561809420202,1.236361123245407,0,61.24542124542125,772.4175824175825,792.5641025641025,64.06593406593407,784.1025641025641,-0.448120,0.022766,0.870300,7.028198,0.859833,1.300964,1,2,4,1,4,100.000000
2021-04-07 12:42:24.729,,,,,,,,,,,,,,,,,,,,,,,,,,,,,,,,,,,,,,/muse/elements/blink
2021-04-07 12:42:25.132,,,,,,,,,,,,,,,,,,,,,,,,,,,,,,,,,,,,,,/muse/elements/blink
2021-04-07 12:42:25.672,0.6154770026519123,0.3046396706272871,-0.1996331174697347,0,0.2608053798011918,0.7226811457682273,0.0280383384403409,0,0.7928063179208057,1.054139612482882,0.3406804929966715,0,1.266557005266951,1.534206373738833,1.201849477118677,0,1.002534475709069,1.499561809420202,1.099081545378269,0,1193.882783882784,836.8864468864469,834.4688644688645,1170.10989010989,816.3369963369963,-0.432983,0.018860,0.875671,6.190796,1.629944,1.398163,1,2,4,1,4,100.000000
2021-04-07 12:42:26.456,,,,,,,,,,,,,,,,,,,,,,,,,,,,,,,,,,,,,,/muse/elements/blink
2021-04-07 12:42:26.651,0.6154770026519123,0.3046396706272871,0.6490606933896476,0,0.2608053798011918,0.7226811457682273,0.4250597665037225,0,0.7928063179208057,1.054139612482882,0.4791729507394858,0,1.266557005266951,1.534206373738833,1.254581480414092,0,1.002534475709069,1.499561809420202,1.104358306277075,0,269.5604395604396,788.5347985347986,786.9230769230769,344.9084249084249,937.6190476190476,-0.420715,0.015320,0.879700,6.093597,1.816864,2.512207,1,2,4,1,4,100.000000
2021-04-07 12:42:27.632,0.6154770026519123,0.3046396706272871,0.04272960462844838,0,0.2608053798011918,0.7226811457682273,-0.03632723096345346,0,0.7928063179208057,1.054139612482882,0.5575411545143723,0,1.266557005266951,1.534206373738833,1.258230332285743,0,1.002534475709069,1.499561809420202,0.8539117224964957,0,779.2673992673992,863.8827838827839,783.2967032967033,915.0549450549451,850.5860805860806,-0.420288,0.017456,0.881409,6.370239,2.310333,2.257996,1,2,4,1,4,100.000000
2021-04-07 12:42:28.348,,,,,,,,,,,,,,,,,,,,,,,,,,,,,,,,,,,,,,/muse/elements/blink
2021-04-07 12:42:28.649,0.6154770026519123,0.3046396706272871,0.07703097045438242,0,0.2608053798011918,0.7226811457682273,0.3212703615130873,0,0.7928063179208057,1.054139612482882,0.6563536982213301,0,1.266557005266951,1.534206373738833,1.214490887456864,0,1.002534475709069,1.499561809420202,0.7727354066219568,0,417.4358974358975,768.3882783882784,777.2527472527473,521.7948717948718,830.8424908424909,-0.427673,0.014648,0.875977,6.474915,2.743988,0.777588,1,2,2,1,4,100.000000
2021-04-07 12:42:29.330,,,,,,,,,,,,,,,,,,,,,,,,,,,,,,,,,,,,,,/muse/elements/blink
2021-04-07 12:42:29.640,0.6154770026519123,0.3046396706272871,0.2938923684032728,0,0.2608053798011918,0.7226811457682273,0.35372044488005,0,0.7928063179208057,1.054139612482882,0.5477921814217936,0,1.266557005266951,1.534206373738833,1.229246608569447,0,1.002534475709069,1.499561809420202,1.099473745223545,0,233.2967032967033,749.4505494505495,810.2930402930403,242.967032967033,630.5860805860806,-0.448608,0.018372,0.866150,2.901001,2.429962,7.648773,1,2,4,1,4,100.000000
2021-04-07 12:42:29.818,,,,,,,,,,,,,,,,,,,,,,,,,,,,,,,,,,,,,,/muse/elements/blink
2021-04-07 12:42:30.637,0.6154770026519123,0.3046396706272871,0.05767017012659586,0,0.2608053798011918,0.7226811457682273,0.06222256158540511,0,0.7928063179208057,1.054139612482882,0.6837804471030589,0,1.266557005266951,1.534206373738833,1.346907869970609,0,1.002534475709069,1.499561809420202,1.461176260615319,0,628.974358974359,805.4578754578755,799.4139194139194,822.3809523809524,851.3919413919414,-0.429382,0.033142,0.867798,11.289978,-1.614990,-12.067566,1,2,4,1,4,100.000000
2021-04-07 12:42:30.765,,,,,,,,,,,,,,,,,,,,,,,,,,,,,,,,,,,,,,/muse/elements/blink
2021-04-07 12:42:31.687,0.6154770026519123,0.3046396706272871,0.05527464466882685,0,0.2608053798011918,0.7226811457682273,0.0936615174216188,0,0.7928063179208057,1.054139612482882,0.5470510716666138,0,1.266557005266951,1.534206373738833,1.347065643030935,0,1.002534475709069,1.499561809420202,1.422780246704262,0,418.6446886446886,855.0183150183151,800.2197802197802,489.96336996337,830.4395604395604,0.041077,0.028381,1.006104,5.144043,-0.829926,-0.493469,1,2,4,1,2,100.000000
2021-04-07 12:42:32.672,0.6154770026519123,0.3046396706272871,0.2231822224998151,0,0.2608053798011918,0.7226811457682273,0.2448979326465848,0,0.7928063179208057,1.054139612482882,0.4561171197336423,0,1.266557005266951,1.534206373738833,1.311630917870949,0,1.002534475709069,1.499561809420202,1.29497488799394,0,6.446886446886447,890.8791208791209,788.5347985347986,56.81318681318682,808.6813186813187,-0.422241,0.046692,0.842285,7.058105,24.860382,-3.499146,1,2,2,1,4,100.000000
2021-04-07 12:42:33.682,0.6154770026519123,0.3046396706272871,0.2231822224998151,0,0.2608053798011918,0.7226811457682273,0.2448979326465848,0,0.7928063179208057,1.054139612482882,0.4561171197336423,0,1.266557005266951,1.534206373738833,1.311630917870949,0,1.002534475709069,1.499561809420202,1.29497488799394,0,1567.802197802198,779.6703296703297,826.007326007326,1595.201465201465,703.1135531135532,-0.472717,0.062561,0.854858,7.962799,1.764526,2.983246,1,2,4,1,2,100.000000
2021-04-07 12:42:34.682,0.6154770026519123,0.3046396706272871,-0.07317873188544236,0,0.2608053798011918,0.7226811457682273,-0.2745454127464538,0,0.7928063179208057,1.054139612482882,0.323200370956191,0,1.266557005266951,1.534206373738833,1.249458434243202,0,1.002534475709069,1.499561809420202,1.613189931691707,0,102.3443223443224,789.3406593406594,810.6959706959707,29.01098901098901,790.952380952381,-0.398560,0.065430,0.866760,7.416992,-22.161255,8.807678,1,2,1,1,2,100.000000
2021-04-07 12:42:35.636,0.6154770026519123,0.3046396706272871,-0.4885774333679506,0,0.2608053798011918,0.7226811457682273,-0.7104160536857574,0,0.7928063179208057,1.054139612482882,0.1006749137359035,0,1.266557005266951,1.534206373738833,1.286050865203254,0,1.002534475709069,1.499561809420202,1.716635707873759,0,113.6263736263736,767.1794871794872,734.5421245421246,198.2417582417582,726.8864468864469,-0.363953,0.060669,0.896545,9.136658,22.931366,-3.686066,1,2,4,1,2,100.000000
2021-04-07 12:42:36.689,0.6154770026519123,0.3046396706272871,-0.4076641700184833,0,0.2608053798011918,0.7226811457682273,-0.7394511044648977,0,0.7928063179208057,1.054139612482882,0.01545108738538413,0,1.266557005266951,1.534206373738833,1.296732682111539,0,1.002534475709069,1.499561809420202,1.710967862140803,0,40.29304029304029,750.6593406593407,771.2087912087912,0,802.2344322344322,-0.445496,0.064331,0.869690,5.884247,2.729034,3.401947,1,2,4,1,2,100.000000
2021-04-07 12:42:37.296,,,,,,,,,,,,,,,,,,,,,,,,,,,,,,,,,,,,,,/muse/elements/blink
2021-04-07 12:42:37.633,0.6154770026519123,0.3046396706272871,-0.4076641700184833,0,0.2608053798011918,0.7226811457682273,-0.7394511044648977,0,0.7928063179208057,1.054139612482882,0.01545108738538413,0,1.266557005266951,1.534206373738833,1.296732682111539,0,1.002534475709069,1.499561809420202,1.710967862140803,0,250.6227106227106,802.6373626373627,809.8901098901099,319.1208791208791,823.5897435897436,-0.471313,-0.003296,0.856995,4.897308,0.328979,2.766418,1,2,1,1,2,100.000000
2021-04-07 12:42:37.843,,,,,,,,,,,,,,,,,,,,,,,,,,,,,,,,,,,,,,/muse/elements/blink
2021-04-07 12:42:38.572,,,,,,,,,,,,,,,,,,,,,,,,,,,,,,,,,,,,,,/muse/elements/blink
2021-04-07 12:42:38.695,0.6154770026519123,0.3046396706272871,0.8958973132300697,0,0.2608053798011918,0.7226811457682273,0.6517027279947984,0,0.7928063179208057,1.054139612482882,0.6158669383519714,0,1.266557005266951,1.534206373738833,1.472247889317435,0,1.002534475709069,1.499561809420202,1.352372190171385,0,1522.673992673993,809.8901098901099,797.8021978021978,1562.967032967033,672.893772893773,-0.479614,0.007812,0.854370,1.114044,2.863617,15.065765,1,2,1,1,4,100.000000
2021-04-07 12:42:39.645,0.6154770026519123,0.3046396706272871,0.4582223777679728,0,0.2608053798011918,0.7226811457682273,0.3183869131367484,0,0.7928063179208057,1.054139612482882,0.5690082026076382,0,1.266557005266951,1.534206373738833,1.520581574787612,0,1.002534475709069,1.499561809420202,1.399655612307849,0,0,817.948717948718,786.9230769230769,461.3553113553114,722.8571428571429,-0.450745,-0.106140,0.883545,4.919739,-6.347809,-2.639313,1,2,4,1,4,100.000000
2021-04-07 12:42:40.463,,,,,,,,,,,,,,,,,,,,,,,,,,,,,,,,,,,,,,/muse/elements/blink
2021-04-07 12:42:40.752,0.6154770026519123,0.3046396706272871,0.8447783323040574,0,0.2608053798011918,0.7226811457682273,0.8024921330997766,0,0.7928063179208057,1.054139612482882,0.7651688797780678,0,1.266557005266951,1.534206373738833,1.48760688473723,0,1.002534475709069,1.499561809420202,1.595706312960668,0,1625.018315018315,794.981684981685,805.8608058608058,1568.205128205128,1108.864468864469,-0.424072,-0.052551,0.885315,26.094055,-3.289795,-6.669312,1,4,4,1,4,100.000000
2021-04-07 12:42:41.700,0.6154770026519123,0.3046396706272871,0.5783925421572691,0,0.2608053798011918,0.7226811457682273,0.2468856897291698,0,0.7928063179208057,1.054139612482882,0.8288058219155792,0,1.266557005266951,1.534206373738833,1.353157514826353,0,1.002534475709069,1.499561809420202,1.08413974813295,0,1289.78021978022,803.040293040293,830.8424908424909,1473.516483516484,838.4981684981685,-0.397705,0.041321,0.899536,4.568329,4.658051,1.315918,1,2,1,1,2,100.000000
2021-04-07 12:42:42.648,0.6154770026519123,0.3046396706272871,0.5142897005693596,0,0.2608053798011918,0.7226811457682273,0.4261941193439924,0,0.7928063179208057,1.054139612482882,0.8275705986271584,0,1.266557005266951,1.534206373738833,1.295287968685313,0,1.002534475709069,1.499561809420202,1.126588174524514,0,441.2087912087912,779.2673992673992,811.0989010989011,539.92673992674,757.5091575091575,-0.466492,0.024231,0.861084,7.454376,2.601929,2.803802,1,2,1,1,2,100.000000
2021-04-07 12:42:42.801,,,,,,,,,,,,,,,,,,,,,,,,,,,,,,,,,,,,,,/muse/elements/blink
2021-04-07 12:42:43.205,,,,,,,,,,,,,,,,,,,,,,,,,,,,,,,,,,,,,,/muse/elements/blink
2021-04-07 12:42:43.645,0.6154770026519123,0.3046396706272871,0.8255475590553532,0,0.2608053798011918,0.7226811457682273,0.824987751347328,0,0.7928063179208057,1.054139612482882,0.8910993332377709,0,1.266557005266951,1.534206373738833,1.230548984803472,0,1.002534475709069,1.499561809420202,1.118522119793431,0,143.4432234432234,835.6776556776557,801.4285714285714,227.6556776556777,937.6190476190476,-0.433411,0.040344,0.875488,12.404022,-1.428070,-9.054413,1,2,4,1,4,100.000000
2021-04-07 12:42:44.162,,,,,,,,,,,,,,,,,,,,,,,,,,,,,,,,,,,,,,/muse/elements/blink
2021-04-07 12:42:44.693,0.6154770026519123,0.3046396706272871,0.1570752492434101,0,0.2608053798011918,0.7226811457682273,0.3215414690151325,0,0.7928063179208057,1.054139612482882,0.5740183558575398,0,1.266557005266951,1.534206373738833,1.215166409769483,0,1.002534475709069,1.499561809420202,0.9736857459420593,0,1494.468864468864,787.7289377289378,798.6080586080586,1454.578754578755,927.5457875457876,-0.413574,-0.004028,0.889343,6.003876,2.444916,1.480408,1,2,1,1,4,100.000000
2021-04-07 12:42:45.669,0.6154770026519123,0.3046396706272871,0.02046069796992049,0,0.2608053798011918,0.7226811457682273,-0.02501337229089305,0,0.7928063179208057,1.054139612482882,0.5510315845559723,0,1.266557005266951,1.534206373738833,1.310070799696723,0,1.002534475709069,1.499561809420202,0.9153499103850262,0,1035.531135531136,838.901098901099,789.3406593406594,955.3479853479854,788.5347985347986,-0.450256,0.024109,0.861816,5.487976,1.951447,4.553375,1,2,4,1,2,100.000000
2021-04-07 12:42:46.654,0.6154770026519123,0.3046396706272871,0.5608766259626912,0,0.2608053798011918,0.7226811457682273,0.3229245760236604,0,0.7928063179208057,1.054139612482882,0.6195741012829248,0,1.266557005266951,1.534206373738833,1.205215148324796,0,1.002534475709069,1.499561809420202,1.095148271712303,0,60.43956043956044,767.1794871794872,799.8168498168499,0,834.8717948717949,-0.427429,0.029297,0.872620,5.682373,1.570129,4.284210,1,2,4,1,4,100.000000
2021-04-07 12:42:47.655,0.6154770026519123,0.3046396706272871,0.634449859099288,0,0.2608053798011918,0.7226811457682273,0.4806298555430839,0,0.7928063179208057,1.054139612482882,0.7769207090612943,0,1.266557005266951,1.534206373738833,1.300312700346594,0,1.002534475709069,1.499561809420202,1.243163983742785,0,126.5201465201465,754.6886446886447,782.893772893773,6.446886446886447,825.6043956043957,-0.428406,0.033264,0.872803,5.988922,2.310333,0.209351,1,2,1,1,4,100.000000
2021-04-07 12:42:48.582,,,,,,,,,,,,,,,,,,,,,,,,,,,,,,,,,,,,,,/muse/elements/blink
2021-04-07 12:42:48.680,0.6154770026519123,0.3046396706272871,0.4546259018415711,0,0.2608053798011918,0.7226811457682273,0.5833348718428218,0,0.7928063179208057,1.054139612482882,0.8588369935069904,0,1.266557005266951,1.534206373738833,1.41843159134591,0,1.002534475709069,1.499561809420202,1.143727543412551,0,325.1648351648352,796.5934065934066,812.3076923076924,176.8864468864469,610.8424908424909,-0.403687,0.024231,0.882385,6.228180,1.420593,1.368256,1,2,1,1,4,100.000000
2021-04-07 12:42:49.662,0.6154770026519123,0.3046396706272871,0.03564788302297817,0,0.2608053798011918,0.7226811457682273,0.2818820494168786,0,0.7928063179208057,1.054139612482882,0.4632348012876956,0,1.266557005266951,1.534206373738833,1.527544206541534,0,1.002534475709069,1.499561809420202,1.089464429721119,0,634.6153846153846,782.0879120879121,795.7875457875458,477.4725274725275,661.6117216117216,-0.404358,0.028076,0.888550,5.959015,2.130890,1.958923,1,2,4,1,4,100.000000
2021-04-07 12:42:50.691,0.6154770026519123,0.3046396706272871,-0.147921318385783,0,0.2608053798011918,0.7226811457682273,0.0792099337877184,0,0.7928063179208057,1.054139612482882,0.2238544345222095,0,1.266557005266951,1.534206373738833,1.358719069555056,0,1.002534475709069,1.499561809420202,1.070872786669312,0,195.018315018315,785.7142857142858,777.2527472527473,66.48351648351648,657.1794871794872,-0.404846,0.008972,0.884644,4.867401,2.930908,3.274841,1,2,4,1,4,100.000000
2021-04-07 12:42:50.701,,,,,,,,,,,,,,,,,,,,,,,,,,,,,,,,,,,,,,/muse/elements/blink
2021-04-07 12:42:51.662,0.6154770026519123,0.3046396706272871,0.6107356369715657,0,0.2608053798011918,0.7226811457682273,0.6671781028678392,0,0.7928063179208057,1.054139612482882,0.8599385914195491,0,1.266557005266951,1.534206373738833,1.215391369202815,0,1.002534475709069,1.499561809420202,1.073940519367951,0,543.1501831501831,775.2380952380953,807.8754578754579,329.1941391941392,963.0036630036631,-0.373901,0.066345,0.919373,7.334747,-3.835602,7.469330,1,2,1,1,4,100.000000
2021-04-07 12:42:52.595,,,,,,,,,,,,,,,,,,,,,,,,,,,,,,,,,,,,,,/muse/elements/blink
2021-04-07 12:42:52.679,0.6154770026519123,0.3046396706272871,0.5848872047916275,0,0.2608053798011918,0.7226811457682273,0.6357789350586269,0,0.7928063179208057,1.054139612482882,0.8691893172535358,0,1.266557005266951,1.534206373738833,1.31827705302687,0,1.002534475709069,1.499561809420202,1.279589900174637,0,343.6996336996337,754.2857142857143,788.9377289377289,361.8315018315018,830.8424908424909,-0.397461,0.031555,0.892090,6.250610,2.243042,2.100983,1,2,4,1,4,100.000000
2021-04-07 12:42:53.106,,,,,,,,,,,,,,,,,,,,,,,,,,,,,,,,,,,,,,/muse/elements/blink
2021-04-07 12:42:53.679,0.6154770026519123,0.3046396706272871,0.06133767905657653,0,0.2608053798011918,0.7226811457682273,-0.1342690173023407,0,0.7928063179208057,1.054139612482882,0.5075385392734452,0,1.266557005266951,1.534206373738833,1.29430009520624,0,1.002534475709069,1.499561809420202,0.9875981963743925,0,143.4432234432234,727.6923076923077,752.2710622710623,51.97802197802198,750.2564102564103,-0.392334,0.025208,0.892761,7.088013,1.996307,1.143951,1,2,4,1,4,100.000000
2021-04-07 12:42:54.652,0.6154770026519123,0.3046396706272871,0.006211807604973314,0,0.2608053798011918,0.7226811457682273,-0.1274536385568373,0,0.7928063179208057,1.054139612482882,0.3756051084840294,0,1.266557005266951,1.534206373738833,1.25464659551198,0,1.002534475709069,1.499561809420202,1.007244643275248,0,1360.695970695971,815.934065934066,830.0366300366301,1564.175824175824,779.2673992673992,-0.390076,0.027649,0.896606,5.921631,1.809387,2.564545,1,2,1,1,4,100.000000
2021-04-07 12:42:55.347,,,,,,,,,,,,,,,,,,,,,,,,,,,,,,,,,,,,,,/muse/elements/blink
2021-04-07 12:42:55.670,0.6154770026519123,0.3046396706272871,0.5311144364434059,0,0.2608053798011918,0.7226811457682273,0.4866149445433589,0,0.7928063179208057,1.054139612482882,0.8581545643948093,0,1.266557005266951,1.534206373738833,1.191278036814945,0,1.002534475709069,1.499561809420202,1.068130479958298,0,847.3626373626374,794.981684981685,781.6849816849817,728.0952380952381,640.6593406593407,-0.394043,0.035767,0.896362,6.003876,2.699127,3.013153,1,2,1,1,4,100.000000
2021-04-07 12:42:56.683,0.6154770026519123,0.3046396706272871,0.7450990137628557,0,0.2608053798011918,0.7226811457682273,0.7364597642816271,0,0.7928063179208057,1.054139612482882,0.8891689612526178,0,1.266557005266951,1.534206373738833,1.264686140170301,0,1.002534475709069,1.499561809420202,1.069053602527193,0,203.0769230769231,787.7289377289378,832.8571428571429,54.7985347985348,788.1318681318681,-0.382019,0.028137,0.895020,5.413208,2.056122,5.353394,1,2,4,1,2,100.000000
2021-04-07 12:42:57.674,0.6154770026519123,0.3046396706272871,0.4273991756523886,0,0.2608053798011918,0.7226811457682273,0.3823867936483977,0,0.7928063179208057,1.054139612482882,0.5105373221873267,0,1.266557005266951,1.534206373738833,1.271516872611014,0,1.002534475709069,1.499561809420202,1.04944006583152,0,1280.10989010989,863.8827838827839,801.4285714285714,1374.798534798535,586.6666666666666,-0.374268,0.050415,0.899536,6.684265,3.297272,-0.695343,1,2,4,1,2,100.000000
2021-04-07 12:42:58.208,,,,,,,,,,,,,,,,,,,,,,,,,,,,,,,,,,,,,,/muse/elements/blink
2021-04-07 12:42:58.696,0.6154770026519123,0.3046396706272871,0.2788715291721881,0,0.2608053798011918,0.7226811457682273,0.5169559773166363,0,0.7928063179208057,1.054139612482882,0.910598701689456,0,1.266557005266951,1.534206373738833,1.252563603018231,0,1.002534475709069,1.499561809420202,0.9580517244833674,0,976.3003663003664,804.2490842490843,801.8315018315019,920.2930402930403,715.6043956043957,-0.379761,0.042603,0.899414,6.841278,2.654266,2.467346,1,2,1,1,2,100.000000
2021-04-07 12:42:59.708,0.6154770026519123,0.3046396706272871,0.4707684168732967,0,0.2608053798011918,0.7226811457682273,0.4400692778463271,0,0.7928063179208057,1.054139612482882,0.8836164833729032,0,1.266557005266951,1.534206373738833,1.362666803809577,0,1.002534475709069,1.499561809420202,0.8898533530333905,0,593.1135531135532,789.3406593406594,790.952380952381,654.7619047619048,844.5421245421246,-0.385376,0.042297,0.899475,6.183319,2.437439,2.527161,1,2,4,1,2,100.000000
2021-04-07 12:43:00.653,0.6154770026519123,0.3046396706272871,0.3899428793437297,0,0.2608053798011918,0.7226811457682273,0.2815135354454014,0,0.7928063179208057,1.054139612482882,0.7315802379169352,0,1.266557005266951,1.534206373738833,1.293159962923033,0,1.002534475709069,1.499561809420202,1.054253652771024,0,232.4908424908425,889.6703296703297,761.5384615384615,27.3992673992674,815.934065934066,-0.380432,0.042786,0.897095,6.220703,2.310333,2.497253,1,2,4,1,2,100.000000
2021-04-07 12:43:01.694,0.6154770026519123,0.3046396706272871,-0.329339012287791,0,0.2608053798011918,0.7226811457682273,-0.09489500920601154,0,0.7928063179208057,1.054139612482882,0.6658746655240296,0,1.266557005266951,1.534206373738833,1.294411674607564,0,1.002534475709069,1.499561809420202,1.134253302146872,0,170.4395604395604,750.2564102564103,811.9047619047619,33.84615384615385,709.5604395604396,-0.379639,0.038818,0.895996,6.355286,2.026215,2.706604,1,2,4,1,2,100.000000
2021-04-07 12:43:02.697,0.6154770026519123,0.3046396706272871,0.07945991439357816,0,0.2608053798011918,0.7226811457682273,0.07285471412264155,0,0.7928063179208057,1.054139612482882,0.5095852290433028,0,1.266557005266951,1.534206373738833,1.265045245202966,0,1.002534475709069,1.499561809420202,1.045407417803572,0,674.1025641025641,753.8827838827839,794.5787545787546,532.2710622710623,1050.43956043956,-0.379944,0.038818,0.901001,6.422577,2.452393,2.624359,1,2,4,1,2,100.000000
2021-04-07 12:43:03.408,,,,,,,,,,,,,,,,,,,,,,,,,,,,,,,,,,,,,,/muse/elements/blink
2021-04-07 12:43:03.695,0.6154770026519123,0.3046396706272871,0.5330865209660176,0,0.2608053798011918,0.7226811457682273,0.4569617134090178,0,0.7928063179208057,1.054139612482882,0.6424557244556882,0,1.266557005266951,1.534206373738833,1.278966531047266,0,1.002534475709069,1.499561809420202,1.101041289435281,0,968.2417582417582,774.8351648351648,793.7728937728938,900.952380952381,1173.333333333333,-0.370178,0.031616,0.899170,5.816956,2.198181,2.474823,1,2,4,1,2,100.000000
2021-04-07 12:43:04.697,0.6154770026519123,0.3046396706272871,0.4143777224618536,0,0.2608053798011918,0.7226811457682273,0.3682487738244,0,0.7928063179208057,1.054139612482882,0.5327200404516504,0,1.266557005266951,1.534206373738833,1.337219071342023,0,1.002534475709069,1.499561809420202,1.250215733575204,0,1415.897435897436,782.893772893773,807.8754578754579,1627.838827838828,817.948717948718,-0.382446,0.034912,0.896240,6.437531,3.760834,1.914062,1,2,1,1,2,100.000000
2021-04-07 12:43:05.020,,,,,,,,,,,,,,,,,,,,,,,,,,,,,,,,,,,,,,/muse/elements/blink
2021-04-07 12:43:05.699,0.6154770026519123,0.3046396706272871,0.5699007328551093,0,0.2608053798011918,0.7226811457682273,0.3029571019203581,0,0.7928063179208057,1.054139612482882,0.5015573653925658,0,1.266557005266951,1.534206373738833,1.304038799123793,0,1.002534475709069,1.499561809420202,1.104062771620806,0,221.2087912087912,752.2710622710623,804.2490842490843,19.74358974358974,906.996336996337,-0.377258,0.038757,0.899902,5.966492,2.609406,2.624359,1,2,4,1,2,100.000000
2021-04-07 12:43:06.675,0.6154770026519123,0.3046396706272871,0.8688200292190513,0,0.2608053798011918,0.7226811457682273,0.6899991625315596,0,0.7928063179208057,1.054139612482882,0.6702208113308742,0,1.266557005266951,1.534206373738833,1.308556761789845,0,1.002534475709069,1.499561809420202,1.200508193998461,0,1446.923076923077,790.5494505494506,827.2161172161173,1618.571428571429,817.5457875457876,-0.385193,0.033813,0.896729,6.310425,2.661743,1.936493,1,2,4,1,2,100.000000
2021-04-07 12:43:07.634,0.6154770026519123,0.3046396706272871,0.6146115501315088,0,0.2608053798011918,0.7226811457682273,0.5246639242185585,0,0.7928063179208057,1.054139612482882,0.6727293292721905,0,1.266557005266951,1.534206373738833,1.152558059553394,0,1.002534475709069,1.499561809420202,1.17291749471019,0,1280.915750915751,803.8461538461539,809.0842490842491,1330.476190476191,862.6739926739926,-0.382202,0.027344,0.895813,5.644989,2.729034,2.280426,1,2,4,1,2,100.000000
2021-04-07 12:43:08.683,0.6154770026519123,0.3046396706272871,-0.1552050453113998,0,0.2608053798011918,0.7226811457682273,0.01109791957833739,0,0.7928063179208057,1.054139612482882,0.3691447113735796,0,1.266557005266951,1.534206373738833,1.261985235339874,0,1.002534475709069,1.499561809420202,1.080453476170973,0,959.3772893772895,823.992673992674,799.0109890109891,833.6630036630037,858.2417582417582,-0.390808,0.020508,0.897461,6.975861,3.147736,1.779480,1,2,4,1,2,100.000000
2021-04-07 12:43:09.696,0.6154770026519123,0.3046396706272871,0.5042049334823044,0,0.2608053798011918,0.7226811457682273,0.4698024066708925,0,0.7928063179208057,1.054139612482882,0.5809501058304273,0,1.266557005266951,1.534206373738833,1.25488400949778,0,1.002534475709069,1.499561809420202,1.211346633718185,0,143.0402930402931,744.6153846153846,792.5641025641025,14.50549450549451,763.5531135531136,-0.401733,0.031250,0.899231,6.295471,2.123413,2.287903,1,2,4,1,2,100.000000
2021-04-07 12:43:10.690,0.6154770026519123,0.3046396706272871,0.4343681001011092,0,0.2608053798011918,0.7226811457682273,0.3835825496814991,0,0.7928063179208057,1.054139612482882,0.5816779501088375,0,1.266557005266951,1.534206373738833,1.061388418003382,0,1.002534475709069,1.499561809420202,1.112107590695167,0,1303.479853479854,784.1025641025641,796.996336996337,1384.871794871795,961.3919413919414,-0.397461,0.016541,0.900818,8.089905,1.443024,-4.702911,1,2,4,1,2,100.000000
2021-04-07 12:43:11.681,0.6154770026519123,0.3046396706272871,0.002443987757087678,0,0.2608053798011918,0.7226811457682273,-0.1183798342837734,0,0.7928063179208057,1.054139612482882,0.3998235603932794,0,1.266557005266951,1.534206373738833,1.255291304582817,0,1.002534475709069,1.499561809420202,1.130641259485644,0,959.3772893772895,781.2820512820513,796.996336996337,869.5238095238095,649.1208791208792,-0.391846,0.006409,0.896667,4.403839,2.056122,5.704803,1,2,1,1,2,100.000000
2021-04-07 12:43:12.711,0.6154770026519123,0.3046396706272871,0.2719011395068247,0,0.2608053798011918,0.7226811457682273,0.07993797794214341,0,0.7928063179208057,1.054139612482882,0.4680586015473984,0,1.266557005266951,1.534206373738833,1.380063639703061,0,1.002534475709069,1.499561809420202,1.124191603634515,0,987.5824175824176,817.5457875457876,799.4139194139194,915.0549450549451,726.8864468864469,-0.389404,0.020630,0.895325,6.661835,2.863617,2.467346,1,2,1,1,2,100.000000
2021-04-07 12:43:13.671,0.6154770026519123,0.3046396706272871,0.5085505163234114,0,0.2608053798011918,0.7226811457682273,0.4241096862551114,0,0.7928063179208057,1.054139612482882,0.4918185607941512,0,1.266557005266951,1.534206373738833,1.270435744331176,0,1.002534475709069,1.499561809420202,1.020245178950571,0,1382.051282051282,804.6520146520147,795.3846153846154,1583.113553113553,821.1721611721612,-0.388794,0.022888,0.889526,7.319794,2.542114,3.117828,1,2,1,1,2,100.000000
2021-04-07 12:43:14.691,0.6154770026519123,0.3046396706272871,0.5054357550858217,0,0.2608053798011918,0.7226811457682273,0.5605552185268086,0,0.7928063179208057,1.054139612482882,0.5361684372896155,0,1.266557005266951,1.534206373738833,1.284736442997249,0,1.002534475709069,1.499561809420202,1.210283404739037,0,385.2014652014652,815.1282051282052,792.5641025641025,335.2380952380952,681.3553113553114,-0.386658,0.025757,0.899109,5.981445,2.302856,5.390778,1,2,4,1,2,100.000000
2021-04-07 12:43:15.355,,,,,,,,,,,,,,,,,,,,,,,,,,,,,,,,,,,,,,/muse/elements/blink
2021-04-07 12:43:15.711,0.6154770026519123,0.3046396706272871,0.9900717940755482,0,0.2608053798011918,0.7226811457682273,0.6636341758815684,0,0.7928063179208057,1.054139612482882,0.8878577816761529,0,1.266557005266951,1.534206373738833,1.280159134292096,0,1.002534475709069,1.499561809420202,1.202291565563588,0,1223.699633699634,788.9377289377289,820.3663003663004,1267.216117216117,918.6813186813187,-0.383789,0.035889,0.899170,5.921631,2.198181,2.340240,1,2,4,1,2,100.000000
2021-04-07 12:43:16.713,0.6154770026519123,0.3046396706272871,0.7423796738224314,0,0.2608053798011918,0.7226811457682273,0.3849827444312128,0,0.7928063179208057,1.054139612482882,0.8878577816761529,0,1.266557005266951,1.534206373738833,1.200471144386317,0,1.002534475709069,1.499561809420202,1.178371497908065,0,1168.498168498169,807.8754578754579,799.4139194139194,1383.663003663004,600.3663003663004,-0.385681,0.039185,0.895081,6.183319,2.564545,2.078552,1,2,1,1,2,100.000000
2021-04-07 12:43:17.715,0.6154770026519123,0.3046396706272871,0.3854451534337958,0,0.2608053798011918,0.7226811457682273,0.2302685763932895,0,0.7928063179208057,1.054139612482882,0.8462454659241427,0,1.266557005266951,1.534206373738833,1.193882611736297,0,1.002534475709069,1.499561809420202,1.167317938850358,0,1450.14652014652,909.4139194139194,798.6080586080586,1624.615384615385,934.7985347985348,-0.386536,0.033508,0.892456,6.347809,2.153320,2.437439,1,2,4,1,2,100.000000
2021-04-07 12:43:18.695,0.6154770026519123,0.3046396706272871,0.2899162859796345,0,0.2608053798011918,0.7226811457682273,0.2190460282673272,0,0.7928063179208057,1.054139612482882,0.8462454659241427,0,1.266557005266951,1.534206373738833,1.20641508406157,0,1.002534475709069,1.499561809420202,1.04235737392624,0,613.6630036630037,828.021978021978,804.6520146520147,440.4029304029304,904.981684981685,-0.388428,0.035095,0.894348,6.916046,2.115936,2.452393,1,2,4,1,2,100.000000
2021-04-07 12:43:19.431,,,,,,,,,,,,,,,,,,,,,,,,,,,,,,,,,,,,,,/muse/elements/blink
2021-04-07 12:43:19.719,0.6154770026519123,0.3046396706272871,0.6930238474392435,0,0.2608053798011918,0.7226811457682273,0.1858648625577626,0,0.7928063179208057,1.054139612482882,0.2299060406891478,0,1.266557005266951,1.534206373738833,1.117267446469786,0,1.002534475709069,1.499561809420202,0.9426914198987489,0,843.3333333333334,776.4468864468864,797.8021978021978,753.8827838827839,763.1501831501831,-0.382812,0.032288,0.896179,5.719757,1.629944,1.689758,1,2,4,1,2,100.000000
2021-04-07 12:43:20.631,0.6154770026519123,0.3046396706272871,0.7680951741350424,0,0.2608053798011918,0.7226811457682273,0.374650553915249,0,0.7928063179208057,1.054139612482882,0.3860633862372462,0,1.266557005266951,1.534206373738833,1.126311903726298,0,1.002534475709069,1.499561809420202,1.023840267138292,0,1187.838827838828,775.2380952380953,847.3626373626374,1168.901098901099,722.0512820512821,-0.372681,0.019043,0.879333,6.587067,-6.811371,6.990814,1,2,4,1,2,100.000000
2021-04-07 12:43:20.728,,,,,,,,,,,,,,,,,,,,,,,,,,,,,,,,,,,,,,/muse/elements/blink
2021-04-07 12:43:21.723,0.6154770026519123,0.3046396706272871,1.275695096770249,0,0.2608053798011918,0.7226811457682273,0.8547726199322018,0,0.7928063179208057,1.054139612482882,0.6168975560583687,0,1.266557005266951,1.534206373738833,0.9448259006938626,0,1.002534475709069,1.499561809420202,0.8379119026766477,0,683.7728937728938,874.7619047619048,801.8315018315019,440,843.3333333333334,-0.040894,-0.138611,0.983521,9.779663,-6.056213,6.362762,1,2,4,1,2,100.000000
